Date:	2023-09-18		
Time:	20:21		
Sample name:	Pellets		
Position:	602.600011	mm	
Sample surface:	5.987668	cm	
Tube anode:	Mo		
Tube voltage:	30	kV	
Tube current:	50	mA	
Comments	not in position		
Gain	5.810000		
peaking_time	0.300000	m-sec	
trigger_threshold	30.000000	V	
mca_bin_width	2.000000	no:	
number_mca_channels	2048.000000	no:	
gap_time	0.100000	m-sec	
trigger_peaking_time	0.050000	m-sec	
livetime	17.243784	seconds	
runtime	20.000006	seconds	
input_count_rate	116982.498938	cps	
output_count_rate	100861.022263	cps	
triggers	2256529.000000	seconds	
events_in_run	2007337.000000	seconds	
channel	content		
 1.00	 0.00
 2.00	 0.00
 3.00	 0.00
 4.00	 0.00
 5.00	 0.00
 6.00	 0.00
 7.00	 0.00
 8.00	 0.00
 9.00	 0.00
10.00	 0.00
11.00	 0.00
12.00	 0.00
13.00	 0.00
14.00	 0.00
15.00	 0.00
16.00	 0.00
17.00	 0.00
18.00	 0.00
19.00	 0.00
20.00	 0.00
21.00	 0.00
22.00	 0.00
23.00	 0.00
24.00	 0.00
25.00	 0.00
26.00	 0.00
27.00	 0.00
28.00	 0.00
29.00	 0.00
30.00	 0.00
31.00	 0.00
32.00	 4.00
33.00	 2.00
34.00	 6.00
35.00	 4.00
36.00	 7.00
37.00	13.00
38.00	17.00
39.00	18.00
40.00	32.00
41.00	49.00
42.00	60.00
43.00	75.00
44.00	97.00
45.00	98.00
46.00	127.00
47.00	151.00
48.00	177.00
49.00	188.00
50.00	231.00
51.00	222.00
52.00	278.00
53.00	240.00
54.00	282.00
55.00	284.00
56.00	296.00
57.00	309.00
58.00	314.00
59.00	289.00
60.00	330.00
61.00	329.00
62.00	328.00
63.00	324.00
64.00	336.00
65.00	353.00
66.00	339.00
67.00	296.00
68.00	349.00
69.00	333.00
70.00	369.00
71.00	369.00
72.00	348.00
73.00	358.00
74.00	354.00
75.00	314.00
76.00	314.00
77.00	360.00
78.00	343.00
79.00	357.00
80.00	350.00
81.00	360.00
82.00	315.00
83.00	323.00
84.00	363.00
85.00	332.00
86.00	310.00
87.00	347.00
88.00	359.00
89.00	308.00
90.00	313.00
91.00	304.00
92.00	341.00
93.00	293.00
94.00	284.00
95.00	304.00
96.00	297.00
97.00	302.00
98.00	283.00
99.00	302.00
100.00	310.00
101.00	279.00
102.00	271.00
103.00	294.00
104.00	250.00
105.00	278.00
106.00	263.00
107.00	247.00
108.00	288.00
109.00	271.00
110.00	273.00
111.00	245.00
112.00	263.00
113.00	232.00
114.00	279.00
115.00	234.00
116.00	278.00
117.00	285.00
118.00	250.00
119.00	258.00
120.00	246.00
121.00	230.00
122.00	225.00
123.00	223.00
124.00	206.00
125.00	222.00
126.00	208.00
127.00	222.00
128.00	200.00
129.00	205.00
130.00	194.00
131.00	174.00
132.00	183.00
133.00	198.00
134.00	196.00
135.00	199.00
136.00	229.00
137.00	303.00
138.00	340.00
139.00	410.00
140.00	531.00
141.00	610.00
142.00	812.00
143.00	944.00
144.00	1007.00
145.00	1001.00
146.00	935.00
147.00	834.00
148.00	744.00
149.00	685.00
150.00	581.00
151.00	575.00
152.00	528.00
153.00	440.00
154.00	431.00
155.00	392.00
156.00	383.00
157.00	335.00
158.00	407.00
159.00	527.00
160.00	898.00
161.00	1342.00
162.00	2349.00
163.00	3732.00
164.00	5421.00
165.00	7796.00
166.00	10158.00
167.00	12154.00
168.00	13597.00
169.00	14175.00
170.00	13668.00
171.00	12307.00
172.00	10109.00
173.00	7998.00
174.00	5996.00
175.00	4241.00
176.00	2918.00
177.00	2056.00
178.00	1489.00
179.00	1158.00
180.00	852.00
181.00	694.00
182.00	568.00
183.00	489.00
184.00	439.00
185.00	372.00
186.00	334.00
187.00	328.00
188.00	357.00
189.00	330.00
190.00	311.00
191.00	339.00
192.00	316.00
193.00	331.00
194.00	325.00
195.00	283.00
196.00	264.00
197.00	276.00
198.00	265.00
199.00	225.00
200.00	219.00
201.00	197.00
202.00	199.00
203.00	160.00
204.00	176.00
205.00	137.00
206.00	164.00
207.00	179.00
208.00	191.00
209.00	174.00
210.00	184.00
211.00	157.00
212.00	145.00
213.00	171.00
214.00	182.00
215.00	150.00
216.00	183.00
217.00	195.00
218.00	191.00
219.00	245.00
220.00	262.00
221.00	273.00
222.00	262.00
223.00	335.00
224.00	289.00
225.00	288.00
226.00	270.00
227.00	270.00
228.00	234.00
229.00	204.00
230.00	225.00
231.00	172.00
232.00	173.00
233.00	180.00
234.00	171.00
235.00	166.00
236.00	164.00
237.00	139.00
238.00	174.00
239.00	155.00
240.00	174.00
241.00	172.00
242.00	153.00
243.00	140.00
244.00	143.00
245.00	150.00
246.00	162.00
247.00	164.00
248.00	148.00
249.00	163.00
250.00	154.00
251.00	149.00
252.00	187.00
253.00	174.00
254.00	185.00
255.00	172.00
256.00	176.00
257.00	216.00
258.00	160.00
259.00	162.00
260.00	209.00
261.00	201.00
262.00	208.00
263.00	247.00
264.00	249.00
265.00	241.00
266.00	252.00
267.00	248.00
268.00	242.00
269.00	283.00
270.00	267.00
271.00	235.00
272.00	210.00
273.00	222.00
274.00	246.00
275.00	206.00
276.00	270.00
277.00	287.00
278.00	373.00
279.00	535.00
280.00	662.00
281.00	874.00
282.00	1157.00
283.00	1373.00
284.00	1717.00
285.00	1985.00
286.00	2029.00
287.00	2073.00
288.00	1967.00
289.00	1899.00
290.00	1644.00
291.00	1363.00
292.00	1025.00
293.00	832.00
294.00	560.00
295.00	434.00
296.00	328.00
297.00	293.00
298.00	228.00
299.00	227.00
300.00	212.00
301.00	229.00
302.00	236.00
303.00	267.00
304.00	324.00
305.00	356.00
306.00	393.00
307.00	560.00
308.00	627.00
309.00	847.00
310.00	1117.00
311.00	1543.00
312.00	2288.00
313.00	3319.00
314.00	4683.00
315.00	6504.00
316.00	8531.00
317.00	10793.00
318.00	12969.00
319.00	14826.00
320.00	16049.00
321.00	16295.00
322.00	16415.00
323.00	15055.00
324.00	13742.00
325.00	11428.00
326.00	9070.00
327.00	6932.00
328.00	5073.00
329.00	3488.00
330.00	2344.00
331.00	1646.00
332.00	996.00
333.00	679.00
334.00	486.00
335.00	403.00
336.00	410.00
337.00	432.00
338.00	499.00
339.00	619.00
340.00	781.00
341.00	977.00
342.00	1313.00
343.00	1586.00
344.00	1966.00
345.00	2338.00
346.00	2829.00
347.00	3223.00
348.00	3907.00
349.00	4548.00
350.00	5265.00
351.00	6313.00
352.00	7318.00
353.00	8759.00
354.00	9840.00
355.00	10804.00
356.00	11677.00
357.00	11780.00
358.00	11880.00
359.00	11111.00
360.00	10131.00
361.00	8719.00
362.00	7224.00
363.00	5780.00
364.00	4338.00
365.00	3230.00
366.00	2268.00
367.00	1604.00
368.00	1029.00
369.00	673.00
370.00	471.00
371.00	355.00
372.00	308.00
373.00	242.00
374.00	234.00
375.00	257.00
376.00	333.00
377.00	365.00
378.00	422.00
379.00	473.00
380.00	581.00
381.00	770.00
382.00	936.00
383.00	1082.00
384.00	1362.00
385.00	1509.00
386.00	1748.00
387.00	1893.00
388.00	1957.00
389.00	1907.00
390.00	1820.00
391.00	1688.00
392.00	1594.00
393.00	1332.00
394.00	1165.00
395.00	1029.00
396.00	821.00
397.00	697.00
398.00	550.00
399.00	511.00
400.00	439.00
401.00	374.00
402.00	373.00
403.00	341.00
404.00	314.00
405.00	286.00
406.00	284.00
407.00	291.00
408.00	285.00
409.00	307.00
410.00	305.00
411.00	292.00
412.00	321.00
413.00	311.00
414.00	317.00
415.00	321.00
416.00	379.00
417.00	385.00
418.00	420.00
419.00	455.00
420.00	552.00
421.00	614.00
422.00	780.00
423.00	980.00
424.00	1229.00
425.00	1827.00
426.00	2400.00
427.00	3409.00
428.00	4665.00
429.00	5917.00
430.00	7606.00
431.00	9556.00
432.00	11117.00
433.00	12819.00
434.00	14360.00
435.00	15082.00
436.00	15731.00
437.00	15068.00
438.00	14545.00
439.00	13302.00
440.00	11661.00
441.00	10185.00
442.00	8497.00
443.00	6845.00
444.00	5646.00
445.00	4541.00
446.00	3836.00
447.00	3209.00
448.00	2930.00
449.00	2737.00
450.00	2415.00
451.00	2277.00
452.00	2181.00
453.00	1963.00
454.00	1873.00
455.00	1603.00
456.00	1479.00
457.00	1360.00
458.00	1182.00
459.00	1215.00
460.00	1168.00
461.00	1187.00
462.00	1315.00
463.00	1502.00
464.00	1616.00
465.00	1722.00
466.00	1921.00
467.00	2123.00
468.00	2243.00
469.00	2523.00
470.00	2774.00
471.00	3051.00
472.00	3162.00
473.00	3554.00
474.00	3873.00
475.00	4044.00
476.00	4134.00
477.00	4009.00
478.00	4032.00
479.00	3792.00
480.00	3555.00
481.00	3283.00
482.00	2905.00
483.00	2480.00
484.00	2092.00
485.00	1860.00
486.00	1513.00
487.00	1276.00
488.00	1096.00
489.00	1038.00
490.00	989.00
491.00	881.00
492.00	885.00
493.00	861.00
494.00	860.00
495.00	910.00
496.00	939.00
497.00	973.00
498.00	1027.00
499.00	1045.00
500.00	1076.00
501.00	1105.00
502.00	1125.00
503.00	1218.00
504.00	1208.00
505.00	1242.00
506.00	1336.00
507.00	1373.00
508.00	1311.00
509.00	1400.00
510.00	1423.00
511.00	1446.00
512.00	1589.00
513.00	1540.00
514.00	1612.00
515.00	1603.00
516.00	1664.00
517.00	1867.00
518.00	1917.00
519.00	1999.00
520.00	2092.00
521.00	2190.00
522.00	2261.00
523.00	2327.00
524.00	2237.00
525.00	2315.00
526.00	2195.00
527.00	2117.00
528.00	2052.00
529.00	1947.00
530.00	1871.00
531.00	1818.00
532.00	1746.00
533.00	1613.00
534.00	1668.00
535.00	1670.00
536.00	1788.00
537.00	1755.00
538.00	1739.00
539.00	1735.00
540.00	1795.00
541.00	1800.00
542.00	1879.00
543.00	1820.00
544.00	1788.00
545.00	1806.00
546.00	1761.00
547.00	1858.00
548.00	1907.00
549.00	1839.00
550.00	1903.00
551.00	1929.00
552.00	1816.00
553.00	1962.00
554.00	2157.00
555.00	2377.00
556.00	2684.00
557.00	3290.00
558.00	3928.00
559.00	4892.00
560.00	6152.00
561.00	7748.00
562.00	9482.00
563.00	11819.00
564.00	13893.00
565.00	16261.00
566.00	18764.00
567.00	20219.00
568.00	21833.00
569.00	22698.00
570.00	23038.00
571.00	22458.00
572.00	21545.00
573.00	19693.00
574.00	17588.00
575.00	15246.00
576.00	13228.00
577.00	10784.00
578.00	8595.00
579.00	6853.00
580.00	5680.00
581.00	4383.00
582.00	3603.00
583.00	3083.00
584.00	2814.00
585.00	2382.00
586.00	2301.00
587.00	2321.00
588.00	2202.00
589.00	2237.00
590.00	2384.00
591.00	2445.00
592.00	2601.00
593.00	2548.00
594.00	2881.00
595.00	3008.00
596.00	3408.00
597.00	3714.00
598.00	4514.00
599.00	5391.00
600.00	6806.00
601.00	8874.00
602.00	12220.00
603.00	17193.00
604.00	24362.00
605.00	35003.00
606.00	48981.00
607.00	68208.00
608.00	92362.00
609.00	123203.00
610.00	159597.00
611.00	200714.00
612.00	246799.00
613.00	293562.00
614.00	339949.00
615.00	383171.00
616.00	415963.00
617.00	441900.00
618.00	451731.00
619.00	451476.00
620.00	435546.00
621.00	409624.00
622.00	374077.00
623.00	329127.00
624.00	283030.00
625.00	235574.00
626.00	189517.00
627.00	149580.00
628.00	114894.00
629.00	86187.00
630.00	62988.00
631.00	45052.00
632.00	31401.00
633.00	22259.00
634.00	15634.00
635.00	11184.00
636.00	8205.00
637.00	6251.00
638.00	5114.00
639.00	4259.00
640.00	3818.00
641.00	3629.00
642.00	3367.00
643.00	3221.00
644.00	3137.00
645.00	3260.00
646.00	3336.00
647.00	3247.00
648.00	3345.00
649.00	3418.00
650.00	3316.00
651.00	3433.00
652.00	3534.00
653.00	3619.00
654.00	3641.00
655.00	3838.00
656.00	3953.00
657.00	4070.00
658.00	4259.00
659.00	4322.00
660.00	4549.00
661.00	4769.00
662.00	5310.00
663.00	5552.00
664.00	6105.00
665.00	7110.00
666.00	8100.00
667.00	9485.00
668.00	11430.00
669.00	13873.00
670.00	16961.00
671.00	20808.00
672.00	25337.00
673.00	30640.00
674.00	37026.00
675.00	43824.00
676.00	50163.00
677.00	56995.00
678.00	62940.00
679.00	68169.00
680.00	71338.00
681.00	72915.00
682.00	73302.00
683.00	70750.00
684.00	67203.00
685.00	62156.00
686.00	55803.00
687.00	49202.00
688.00	41913.00
689.00	35003.00
690.00	28679.00
691.00	22967.00
692.00	18576.00
693.00	14321.00
694.00	11072.00
695.00	8484.00
696.00	6779.00
697.00	5502.00
698.00	4524.00
699.00	3939.00
700.00	3536.00
701.00	3208.00
702.00	3296.00
703.00	3159.00
704.00	3134.00
705.00	3181.00
706.00	3216.00
707.00	3227.00
708.00	3296.00
709.00	3419.00
710.00	3545.00
711.00	3612.00
712.00	3806.00
713.00	3869.00
714.00	4247.00
715.00	4240.00
716.00	4456.00
717.00	4686.00
718.00	4777.00
719.00	4835.00
720.00	5032.00
721.00	4964.00
722.00	4965.00
723.00	4861.00
724.00	4768.00
725.00	4692.00
726.00	4607.00
727.00	4491.00
728.00	4168.00
729.00	3965.00
730.00	3827.00
731.00	3720.00
732.00	3516.00
733.00	3500.00
734.00	3291.00
735.00	3313.00
736.00	3301.00
737.00	3203.00
738.00	3126.00
739.00	3057.00
740.00	3073.00
741.00	3092.00
742.00	2920.00
743.00	2995.00
744.00	3021.00
745.00	3051.00
746.00	3089.00
747.00	3007.00
748.00	3061.00
749.00	3034.00
750.00	3015.00
751.00	3022.00
752.00	3011.00
753.00	3020.00
754.00	3036.00
755.00	3143.00
756.00	3222.00
757.00	3055.00
758.00	3217.00
759.00	3210.00
760.00	3325.00
761.00	3439.00
762.00	3417.00
763.00	3521.00
764.00	3586.00
765.00	3751.00
766.00	3880.00
767.00	4024.00
768.00	4185.00
769.00	4334.00
770.00	4548.00
771.00	4597.00
772.00	4935.00
773.00	5067.00
774.00	5285.00
775.00	5270.00
776.00	5364.00
777.00	5653.00
778.00	5661.00
779.00	5496.00
780.00	5411.00
781.00	5574.00
782.00	5449.00
783.00	5425.00
784.00	5324.00
785.00	5181.00
786.00	5187.00
787.00	5150.00
788.00	5094.00
789.00	5124.00
790.00	5206.00
791.00	5040.00
792.00	4988.00
793.00	5285.00
794.00	5261.00
795.00	5219.00
796.00	5257.00
797.00	5282.00
798.00	5310.00
799.00	5356.00
800.00	5445.00
801.00	5320.00
802.00	5406.00
803.00	5463.00
804.00	5271.00
805.00	5429.00
806.00	5429.00
807.00	5493.00
808.00	5355.00
809.00	5428.00
810.00	5334.00
811.00	5270.00
812.00	5356.00
813.00	5527.00
814.00	5193.00
815.00	5250.00
816.00	5290.00
817.00	5477.00
818.00	5617.00
819.00	5597.00
820.00	5747.00
821.00	6290.00
822.00	6429.00
823.00	6650.00
824.00	7248.00
825.00	7817.00
826.00	8054.00
827.00	8842.00
828.00	9369.00
829.00	9955.00
830.00	10358.00
831.00	10771.00
832.00	10988.00
833.00	11086.00
834.00	11338.00
835.00	10850.00
836.00	10778.00
837.00	10508.00
838.00	9773.00
839.00	9417.00
840.00	8633.00
841.00	8067.00
842.00	7600.00
843.00	7212.00
844.00	6728.00
845.00	6239.00
846.00	6010.00
847.00	5978.00
848.00	5758.00
849.00	5589.00
850.00	5455.00
851.00	5451.00
852.00	5435.00
853.00	5436.00
854.00	5427.00
855.00	5493.00
856.00	5434.00
857.00	5489.00
858.00	5548.00
859.00	5458.00
860.00	5730.00
861.00	5546.00
862.00	5500.00
863.00	5539.00
864.00	5561.00
865.00	5514.00
866.00	5471.00
867.00	5461.00
868.00	5497.00
869.00	5612.00
870.00	5581.00
871.00	5554.00
872.00	5567.00
873.00	5662.00
874.00	5637.00
875.00	5778.00
876.00	5739.00
877.00	5860.00
878.00	5883.00
879.00	5782.00
880.00	5919.00
881.00	5984.00
882.00	5998.00
883.00	6273.00
884.00	6233.00
885.00	6173.00
886.00	6186.00
887.00	6290.00
888.00	6438.00
889.00	6575.00
890.00	6492.00
891.00	6533.00
892.00	6613.00
893.00	6498.00
894.00	6617.00
895.00	6675.00
896.00	6640.00
897.00	6456.00
898.00	6641.00
899.00	6544.00
900.00	6576.00
901.00	6412.00
902.00	6454.00
903.00	6341.00
904.00	6560.00
905.00	6691.00
906.00	6581.00
907.00	6645.00
908.00	6549.00
909.00	6562.00
910.00	6799.00
911.00	6627.00
912.00	6871.00
913.00	6953.00
914.00	7014.00
915.00	7059.00
916.00	7221.00
917.00	7231.00
918.00	7291.00
919.00	7567.00
920.00	7542.00
921.00	7513.00
922.00	7590.00
923.00	7474.00
924.00	7698.00
925.00	7807.00
926.00	7850.00
927.00	7661.00
928.00	7583.00
929.00	7672.00
930.00	7431.00
931.00	7347.00
932.00	7290.00
933.00	7257.00
934.00	7225.00
935.00	7175.00
936.00	7128.00
937.00	7120.00
938.00	6955.00
939.00	7083.00
940.00	7064.00
941.00	6944.00
942.00	6829.00
943.00	6920.00
944.00	6712.00
945.00	6803.00
946.00	6714.00
947.00	6760.00
948.00	6741.00
949.00	6773.00
950.00	6686.00
951.00	6838.00
952.00	6769.00
953.00	6912.00
954.00	6754.00
955.00	6923.00
956.00	6695.00
957.00	6827.00
958.00	6764.00
959.00	6602.00
960.00	6648.00
961.00	6754.00
962.00	6806.00
963.00	6716.00
964.00	6744.00
965.00	6762.00
966.00	6723.00
967.00	6728.00
968.00	6832.00
969.00	6784.00
970.00	6849.00
971.00	6858.00
972.00	6810.00
973.00	6750.00
974.00	6998.00
975.00	6711.00
976.00	6802.00
977.00	6863.00
978.00	6861.00
979.00	6843.00
980.00	6898.00
981.00	6995.00
982.00	6905.00
983.00	6906.00
984.00	6801.00
985.00	6798.00
986.00	6887.00
987.00	7017.00
988.00	6993.00
989.00	6992.00
990.00	7069.00
991.00	7162.00
992.00	7005.00
993.00	6823.00
994.00	7036.00
995.00	6956.00
996.00	7014.00
997.00	6951.00
998.00	6958.00
999.00	7034.00
1000.00	7036.00
1001.00	6927.00
1002.00	7137.00
1003.00	7097.00
1004.00	7106.00
1005.00	7144.00
1006.00	7295.00
1007.00	7349.00
1008.00	7358.00
1009.00	7463.00
1010.00	7658.00
1011.00	7820.00
1012.00	7659.00
1013.00	7711.00
1014.00	7920.00
1015.00	7949.00
1016.00	7925.00
1017.00	7894.00
1018.00	8068.00
1019.00	7810.00
1020.00	7759.00
1021.00	7775.00
1022.00	7719.00
1023.00	7717.00
1024.00	7318.00
1025.00	7524.00
1026.00	7307.00
1027.00	7199.00
1028.00	7049.00
1029.00	7216.00
1030.00	7069.00
1031.00	7113.00
1032.00	6917.00
1033.00	6985.00
1034.00	6960.00
1035.00	6999.00
1036.00	6959.00
1037.00	7053.00
1038.00	6962.00
1039.00	7037.00
1040.00	6978.00
1041.00	7016.00
1042.00	7013.00
1043.00	6872.00
1044.00	6896.00
1045.00	7071.00
1046.00	6879.00
1047.00	7162.00
1048.00	7290.00
1049.00	7203.00
1050.00	7130.00
1051.00	6988.00
1052.00	7232.00
1053.00	7192.00
1054.00	7221.00
1055.00	7185.00
1056.00	7265.00
1057.00	7120.00
1058.00	7110.00
1059.00	7255.00
1060.00	7124.00
1061.00	7197.00
1062.00	7462.00
1063.00	7333.00
1064.00	7355.00
1065.00	7360.00
1066.00	7391.00
1067.00	7301.00
1068.00	7272.00
1069.00	7323.00
1070.00	7363.00
1071.00	7508.00
1072.00	7496.00
1073.00	7281.00
1074.00	7342.00
1075.00	7406.00
1076.00	7424.00
1077.00	7395.00
1078.00	7593.00
1079.00	7462.00
1080.00	7428.00
1081.00	7469.00
1082.00	7526.00
1083.00	7714.00
1084.00	7375.00
1085.00	7451.00
1086.00	7455.00
1087.00	7523.00
1088.00	7681.00
1089.00	7667.00
1090.00	7447.00
1091.00	7624.00
1092.00	7662.00
1093.00	7477.00
1094.00	7665.00
1095.00	7593.00
1096.00	7824.00
1097.00	7543.00
1098.00	7452.00
1099.00	7736.00
1100.00	7658.00
1101.00	7661.00
1102.00	7578.00
1103.00	7603.00
1104.00	7741.00
1105.00	7582.00
1106.00	7531.00
1107.00	7654.00
1108.00	7651.00
1109.00	7474.00
1110.00	7790.00
1111.00	7648.00
1112.00	7662.00
1113.00	7639.00
1114.00	7644.00
1115.00	7650.00
1116.00	7715.00
1117.00	7619.00
1118.00	7784.00
1119.00	7612.00
1120.00	7639.00
1121.00	7664.00
1122.00	7672.00
1123.00	7503.00
1124.00	7458.00
1125.00	7604.00
1126.00	7667.00
1127.00	7550.00
1128.00	7597.00
1129.00	7586.00
1130.00	7524.00
1131.00	7471.00
1132.00	7614.00
1133.00	7585.00
1134.00	7587.00
1135.00	7542.00
1136.00	7649.00
1137.00	7623.00
1138.00	7520.00
1139.00	7530.00
1140.00	7613.00
1141.00	7563.00
1142.00	7721.00
1143.00	7832.00
1144.00	7738.00
1145.00	7717.00
1146.00	7843.00
1147.00	7714.00
1148.00	7849.00
1149.00	7844.00
1150.00	7685.00
1151.00	7706.00
1152.00	7787.00
1153.00	7615.00
1154.00	7639.00
1155.00	7719.00
1156.00	7769.00
1157.00	7760.00
1158.00	7513.00
1159.00	7471.00
1160.00	7421.00
1161.00	7509.00
1162.00	7553.00
1163.00	7511.00
1164.00	7363.00
1165.00	7531.00
1166.00	7533.00
1167.00	7547.00
1168.00	7525.00
1169.00	7458.00
1170.00	7387.00
1171.00	7541.00
1172.00	7589.00
1173.00	7450.00
1174.00	7526.00
1175.00	7475.00
1176.00	7453.00
1177.00	7458.00
1178.00	7510.00
1179.00	7442.00
1180.00	7584.00
1181.00	7418.00
1182.00	7571.00
1183.00	7604.00
1184.00	7595.00
1185.00	7411.00
1186.00	7616.00
1187.00	7620.00
1188.00	7473.00
1189.00	7712.00
1190.00	7509.00
1191.00	7445.00
1192.00	7666.00
1193.00	7662.00
1194.00	7499.00
1195.00	7608.00
1196.00	7631.00
1197.00	7550.00
1198.00	7740.00
1199.00	7568.00
1200.00	7600.00
1201.00	7580.00
1202.00	7799.00
1203.00	7689.00
1204.00	7489.00
1205.00	7717.00
1206.00	7778.00
1207.00	7780.00
1208.00	7836.00
1209.00	7757.00
1210.00	7900.00
1211.00	7933.00
1212.00	8147.00
1213.00	7973.00
1214.00	8181.00
1215.00	8175.00
1216.00	8234.00
1217.00	8206.00
1218.00	8230.00
1219.00	8299.00
1220.00	8123.00
1221.00	8225.00
1222.00	8331.00
1223.00	8325.00
1224.00	8398.00
1225.00	8434.00
1226.00	8255.00
1227.00	8373.00
1228.00	8315.00
1229.00	8503.00
1230.00	8427.00
1231.00	8516.00
1232.00	8475.00
1233.00	8526.00
1234.00	8484.00
1235.00	8248.00
1236.00	8623.00
1237.00	8406.00
1238.00	8457.00
1239.00	8289.00
1240.00	8335.00
1241.00	8274.00
1242.00	8200.00
1243.00	8225.00
1244.00	8090.00
1245.00	8102.00
1246.00	7813.00
1247.00	7872.00
1248.00	7981.00
1249.00	7729.00
1250.00	7888.00
1251.00	7810.00
1252.00	7604.00
1253.00	7793.00
1254.00	7875.00
1255.00	7851.00
1256.00	7570.00
1257.00	7555.00
1258.00	7750.00
1259.00	7671.00
1260.00	7720.00
1261.00	7658.00
1262.00	7887.00
1263.00	7620.00
1264.00	7666.00
1265.00	7769.00
1266.00	7644.00
1267.00	7726.00
1268.00	7786.00
1269.00	7583.00
1270.00	7790.00
1271.00	7840.00
1272.00	7825.00
1273.00	7854.00
1274.00	8060.00
1275.00	7762.00
1276.00	8092.00
1277.00	8165.00
1278.00	8002.00
1279.00	8190.00
1280.00	8652.00
1281.00	8623.00
1282.00	8671.00
1283.00	8865.00
1284.00	8866.00
1285.00	9019.00
1286.00	9188.00
1287.00	9180.00
1288.00	9054.00
1289.00	9195.00
1290.00	9261.00
1291.00	9338.00
1292.00	9225.00
1293.00	9160.00
1294.00	9131.00
1295.00	9055.00
1296.00	9209.00
1297.00	9004.00
1298.00	8727.00
1299.00	8533.00
1300.00	8382.00
1301.00	8379.00
1302.00	8328.00
1303.00	8274.00
1304.00	8056.00
1305.00	8057.00
1306.00	8020.00
1307.00	7840.00
1308.00	7663.00
1309.00	7620.00
1310.00	7687.00
1311.00	7488.00
1312.00	7485.00
1313.00	7481.00
1314.00	7478.00
1315.00	7623.00
1316.00	7491.00
1317.00	7366.00
1318.00	7538.00
1319.00	7403.00
1320.00	7384.00
1321.00	7517.00
1322.00	7606.00
1323.00	7436.00
1324.00	7560.00
1325.00	7480.00
1326.00	7379.00
1327.00	7479.00
1328.00	7332.00
1329.00	7267.00
1330.00	7512.00
1331.00	7311.00
1332.00	7292.00
1333.00	7298.00
1334.00	7226.00
1335.00	7201.00
1336.00	7365.00
1337.00	7326.00
1338.00	7362.00
1339.00	7347.00
1340.00	7356.00
1341.00	7402.00
1342.00	7331.00
1343.00	7491.00
1344.00	7338.00
1345.00	7272.00
1346.00	7568.00
1347.00	7358.00
1348.00	7475.00
1349.00	7569.00
1350.00	7587.00
1351.00	7674.00
1352.00	7569.00
1353.00	7675.00
1354.00	7857.00
1355.00	7885.00
1356.00	7988.00
1357.00	8196.00
1358.00	8119.00
1359.00	8307.00
1360.00	8098.00
1361.00	8391.00
1362.00	8455.00
1363.00	8461.00
1364.00	8380.00
1365.00	8317.00
1366.00	8275.00
1367.00	8404.00
1368.00	8265.00
1369.00	8166.00
1370.00	8039.00
1371.00	7906.00
1372.00	7858.00
1373.00	7879.00
1374.00	7640.00
1375.00	7509.00
1376.00	7325.00
1377.00	7289.00
1378.00	7115.00
1379.00	7130.00
1380.00	7088.00
1381.00	7143.00
1382.00	7031.00
1383.00	7008.00
1384.00	6910.00
1385.00	6752.00
1386.00	6831.00
1387.00	6873.00
1388.00	6692.00
1389.00	6770.00
1390.00	6814.00
1391.00	6631.00
1392.00	6741.00
1393.00	6669.00
1394.00	6701.00
1395.00	6747.00
1396.00	6768.00
1397.00	6676.00
1398.00	6650.00
1399.00	6569.00
1400.00	6564.00
1401.00	6624.00
1402.00	6757.00
1403.00	6474.00
1404.00	6618.00
1405.00	6638.00
1406.00	6530.00
1407.00	6478.00
1408.00	6535.00
1409.00	6742.00
1410.00	6544.00
1411.00	6466.00
1412.00	6479.00
1413.00	6517.00
1414.00	6616.00
1415.00	6628.00
1416.00	6585.00
1417.00	6529.00
1418.00	6524.00
1419.00	6624.00
1420.00	6541.00
1421.00	6528.00
1422.00	6530.00
1423.00	6508.00
1424.00	6659.00
1425.00	6564.00
1426.00	6612.00
1427.00	6735.00
1428.00	6687.00
1429.00	6823.00
1430.00	6688.00
1431.00	6740.00
1432.00	6923.00
1433.00	6867.00
1434.00	6897.00
1435.00	6890.00
1436.00	7038.00
1437.00	6947.00
1438.00	7010.00
1439.00	6982.00
1440.00	6916.00
1441.00	7050.00
1442.00	6952.00
1443.00	7030.00
1444.00	6829.00
1445.00	6922.00
1446.00	6855.00
1447.00	6895.00
1448.00	6873.00
1449.00	6838.00
1450.00	6864.00
1451.00	6709.00
1452.00	6625.00
1453.00	6524.00
1454.00	6456.00
1455.00	6661.00
1456.00	6481.00
1457.00	6576.00
1458.00	6442.00
1459.00	6329.00
1460.00	6258.00
1461.00	6303.00
1462.00	6295.00
1463.00	6451.00
1464.00	6242.00
1465.00	6216.00
1466.00	6289.00
1467.00	6270.00
1468.00	6282.00
1469.00	6247.00
1470.00	6216.00
1471.00	6309.00
1472.00	6395.00
1473.00	6262.00
1474.00	6367.00
1475.00	6208.00
1476.00	6069.00
1477.00	6162.00
1478.00	6168.00
1479.00	6151.00
1480.00	6037.00
1481.00	6112.00
1482.00	6244.00
1483.00	6292.00
1484.00	6320.00
1485.00	5979.00
1486.00	6172.00
1487.00	6144.00
1488.00	6184.00
1489.00	6275.00
1490.00	6122.00
1491.00	6293.00
1492.00	6155.00
1493.00	6225.00
1494.00	6172.00
1495.00	6311.00
1496.00	6326.00
1497.00	6235.00
1498.00	6191.00
1499.00	6370.00
1500.00	6201.00
1501.00	6505.00
1502.00	6464.00
1503.00	6427.00
1504.00	6586.00
1505.00	6661.00
1506.00	6632.00
1507.00	6500.00
1508.00	6753.00
1509.00	6881.00
1510.00	6839.00
1511.00	6879.00
1512.00	6897.00
1513.00	7163.00
1514.00	7257.00
1515.00	7296.00
1516.00	7117.00
1517.00	7240.00
1518.00	7578.00
1519.00	7418.00
1520.00	7387.00
1521.00	7324.00
1522.00	7239.00
1523.00	7303.00
1524.00	7329.00
1525.00	7260.00
1526.00	7152.00
1527.00	7243.00
1528.00	7122.00
1529.00	7215.00
1530.00	7156.00
1531.00	6927.00
1532.00	6983.00
1533.00	6886.00
1534.00	6641.00
1535.00	6852.00
1536.00	6794.00
1537.00	6947.00
1538.00	6745.00
1539.00	6646.00
1540.00	6844.00
1541.00	6795.00
1542.00	6836.00
1543.00	6810.00
1544.00	6920.00
1545.00	6933.00
1546.00	6811.00
1547.00	7020.00
1548.00	7002.00
1549.00	7014.00
1550.00	7217.00
1551.00	7203.00
1552.00	7211.00
1553.00	7371.00
1554.00	7459.00
1555.00	7478.00
1556.00	7766.00
1557.00	7650.00
1558.00	7825.00
1559.00	7966.00
1560.00	8059.00
1561.00	8154.00
1562.00	8288.00
1563.00	8414.00
1564.00	8666.00
1565.00	8766.00
1566.00	8757.00
1567.00	8904.00
1568.00	9108.00
1569.00	9195.00
1570.00	9444.00
1571.00	9420.00
1572.00	9845.00
1573.00	9794.00
1574.00	9773.00
1575.00	10121.00
1576.00	10492.00
1577.00	10267.00
1578.00	10214.00
1579.00	10560.00
1580.00	10593.00
1581.00	10866.00
1582.00	10746.00
1583.00	10808.00
1584.00	10798.00
1585.00	10914.00
1586.00	11074.00
1587.00	10891.00
1588.00	11073.00
1589.00	10925.00
1590.00	10866.00
1591.00	10976.00
1592.00	10895.00
1593.00	10985.00
1594.00	10738.00
1595.00	10822.00
1596.00	10629.00
1597.00	10778.00
1598.00	10576.00
1599.00	10332.00
1600.00	10390.00
1601.00	10153.00
1602.00	10049.00
1603.00	9898.00
1604.00	9944.00
1605.00	9513.00
1606.00	9647.00
1607.00	9458.00
1608.00	9159.00
1609.00	8881.00
1610.00	8888.00
1611.00	8787.00
1612.00	8508.00
1613.00	8419.00
1614.00	8124.00
1615.00	8048.00
1616.00	7909.00
1617.00	7743.00
1618.00	7814.00
1619.00	7580.00
1620.00	7548.00
1621.00	7291.00
1622.00	7141.00
1623.00	6992.00
1624.00	6995.00
1625.00	6696.00
1626.00	6770.00
1627.00	6584.00
1628.00	6616.00
1629.00	6319.00
1630.00	6266.00
1631.00	6247.00
1632.00	6273.00
1633.00	6015.00
1634.00	5882.00
1635.00	5961.00
1636.00	5838.00
1637.00	5798.00
1638.00	5856.00
1639.00	5586.00
1640.00	5616.00
1641.00	5556.00
1642.00	5420.00
1643.00	5330.00
1644.00	5314.00
1645.00	5187.00
1646.00	5227.00
1647.00	5315.00
1648.00	5284.00
1649.00	5139.00
1650.00	5196.00
1651.00	5081.00
1652.00	5189.00
1653.00	5083.00
1654.00	5110.00
1655.00	5278.00
1656.00	5109.00
1657.00	5121.00
1658.00	5241.00
1659.00	5246.00
1660.00	5318.00
1661.00	5476.00
1662.00	5587.00
1663.00	5729.00
1664.00	5851.00
1665.00	5939.00
1666.00	6252.00
1667.00	6333.00
1668.00	6634.00
1669.00	6778.00
1670.00	7119.00
1671.00	7383.00
1672.00	7503.00
1673.00	7734.00
1674.00	7929.00
1675.00	8205.00
1676.00	8500.00
1677.00	8762.00
1678.00	8671.00
1679.00	8940.00
1680.00	8886.00
1681.00	9346.00
1682.00	9282.00
1683.00	9088.00
1684.00	8961.00
1685.00	8885.00
1686.00	8828.00
1687.00	8532.00
1688.00	8332.00
1689.00	8156.00
1690.00	7909.00
1691.00	7689.00
1692.00	7268.00
1693.00	6904.00
1694.00	6700.00
1695.00	6283.00
1696.00	6280.00
1697.00	5787.00
1698.00	5469.00
1699.00	5461.00
1700.00	5076.00
1701.00	5063.00
1702.00	4795.00
1703.00	4847.00
1704.00	4620.00
1705.00	4528.00
1706.00	4308.00
1707.00	4411.00
1708.00	4275.00
1709.00	4230.00
1710.00	4193.00
1711.00	4114.00
1712.00	4129.00
1713.00	4189.00
1714.00	4085.00
1715.00	4079.00
1716.00	3966.00
1717.00	3959.00
1718.00	3847.00
1719.00	3827.00
1720.00	3949.00
1721.00	3752.00
1722.00	3885.00
1723.00	3923.00
1724.00	3876.00
1725.00	3924.00
1726.00	3979.00
1727.00	4005.00
1728.00	3906.00
1729.00	3894.00
1730.00	3939.00
1731.00	3906.00
1732.00	3962.00
1733.00	3899.00
1734.00	3967.00
1735.00	3773.00
1736.00	3911.00
1737.00	4025.00
1738.00	3957.00
1739.00	4060.00
1740.00	4025.00
1741.00	3987.00
1742.00	3925.00
1743.00	3952.00
1744.00	4009.00
1745.00	4073.00
1746.00	3971.00
1747.00	4003.00
1748.00	3887.00
1749.00	3977.00
1750.00	3984.00
1751.00	3957.00
1752.00	3975.00
1753.00	4026.00
1754.00	4098.00
1755.00	4038.00
1756.00	4059.00
1757.00	4203.00
1758.00	4166.00
1759.00	4085.00
1760.00	4134.00
1761.00	4115.00
1762.00	4184.00
1763.00	4073.00
1764.00	4180.00
1765.00	4234.00
1766.00	4009.00
1767.00	4143.00
1768.00	4192.00
1769.00	4080.00
1770.00	4249.00
1771.00	4120.00
1772.00	4145.00
1773.00	4104.00
1774.00	4042.00
1775.00	3971.00
1776.00	4150.00
1777.00	3988.00
1778.00	3965.00
1779.00	3920.00
1780.00	4013.00
1781.00	4052.00
1782.00	3922.00
1783.00	3919.00
1784.00	3969.00
1785.00	3916.00
1786.00	3936.00
1787.00	3813.00
1788.00	3845.00
1789.00	3781.00
1790.00	3704.00
1791.00	3686.00
1792.00	3746.00
1793.00	3582.00
1794.00	3497.00
1795.00	3485.00
1796.00	3456.00
1797.00	3452.00
1798.00	3435.00
1799.00	3426.00
1800.00	3255.00
1801.00	3316.00
1802.00	3265.00
1803.00	3400.00
1804.00	3188.00
1805.00	3186.00
1806.00	3218.00
1807.00	3053.00
1808.00	3153.00
1809.00	3033.00
1810.00	3055.00
1811.00	2982.00
1812.00	2923.00
1813.00	2895.00
1814.00	2832.00
1815.00	2911.00
1816.00	2874.00
1817.00	2724.00
1818.00	2759.00
1819.00	2837.00
1820.00	2711.00
1821.00	2695.00
1822.00	2703.00
1823.00	2524.00
1824.00	2652.00
1825.00	2588.00
1826.00	2618.00
1827.00	2549.00
1828.00	2513.00
1829.00	2548.00
1830.00	2566.00
1831.00	2499.00
1832.00	2528.00
1833.00	2441.00
1834.00	2346.00
1835.00	2383.00
1836.00	2432.00
1837.00	2404.00
1838.00	2382.00
1839.00	2365.00
1840.00	2249.00
1841.00	2264.00
1842.00	2285.00
1843.00	2286.00
1844.00	2242.00
1845.00	2202.00
1846.00	2274.00
1847.00	2235.00
1848.00	2170.00
1849.00	2137.00
1850.00	2238.00
1851.00	2168.00
1852.00	2183.00
1853.00	2194.00
1854.00	2171.00
1855.00	2038.00
1856.00	2134.00
1857.00	2121.00
1858.00	2060.00
1859.00	2068.00
1860.00	2072.00
1861.00	1931.00
1862.00	2088.00
1863.00	2068.00
1864.00	2015.00
1865.00	2015.00
1866.00	2000.00
1867.00	1989.00
1868.00	2074.00
1869.00	2029.00
1870.00	1955.00
1871.00	1933.00
1872.00	2098.00
1873.00	2064.00
1874.00	2106.00
1875.00	2121.00
1876.00	2217.00
1877.00	2186.00
1878.00	2187.00
1879.00	2153.00
1880.00	2211.00
1881.00	2244.00
1882.00	2286.00
1883.00	2421.00
1884.00	2240.00
1885.00	2349.00
1886.00	2399.00
1887.00	2498.00
1888.00	2305.00
1889.00	2386.00
1890.00	2405.00
1891.00	2421.00
1892.00	2369.00
1893.00	2330.00
1894.00	2291.00
1895.00	2312.00
1896.00	2242.00
1897.00	2073.00
1898.00	2179.00
1899.00	2140.00
1900.00	2010.00
1901.00	2072.00
1902.00	1970.00
1903.00	1919.00
1904.00	1847.00
1905.00	1908.00
1906.00	1835.00
1907.00	1812.00
1908.00	1795.00
1909.00	1781.00
1910.00	1716.00
1911.00	1676.00
1912.00	1669.00
1913.00	1705.00
1914.00	1685.00
1915.00	1699.00
1916.00	1667.00
1917.00	1670.00
1918.00	1643.00
1919.00	1548.00
1920.00	1557.00
1921.00	1598.00
1922.00	1600.00
1923.00	1640.00
1924.00	1533.00
1925.00	1564.00
1926.00	1539.00
1927.00	1545.00
1928.00	1519.00
1929.00	1566.00
1930.00	1491.00
1931.00	1521.00
1932.00	1454.00
1933.00	1479.00
1934.00	1471.00
1935.00	1427.00
1936.00	1337.00
1937.00	1381.00
1938.00	1420.00
1939.00	1334.00
1940.00	1414.00
1941.00	1369.00
1942.00	1373.00
1943.00	1320.00
1944.00	1327.00
1945.00	1339.00
1946.00	1260.00
1947.00	1294.00
1948.00	1227.00
1949.00	1272.00
1950.00	1297.00
1951.00	1234.00
1952.00	1234.00
1953.00	1282.00
1954.00	1228.00
1955.00	1224.00
1956.00	1248.00
1957.00	1214.00
1958.00	1263.00
1959.00	1235.00
1960.00	1226.00
1961.00	1240.00
1962.00	1187.00
1963.00	1215.00
1964.00	1201.00
1965.00	1223.00
1966.00	1158.00
1967.00	1209.00
1968.00	1229.00
1969.00	1165.00
1970.00	1153.00
1971.00	1157.00
1972.00	1110.00
1973.00	1158.00
1974.00	1159.00
1975.00	1172.00
1976.00	1127.00
1977.00	1136.00
1978.00	1102.00
1979.00	1150.00
1980.00	1047.00
1981.00	1132.00
1982.00	1093.00
1983.00	1119.00
1984.00	1072.00
1985.00	1046.00
1986.00	1053.00
1987.00	1016.00
1988.00	1033.00
1989.00	1056.00
1990.00	1084.00
1991.00	1057.00
1992.00	1044.00
1993.00	1025.00
1994.00	1065.00
1995.00	1055.00
1996.00	1012.00
1997.00	1008.00
1998.00	1060.00
1999.00	1065.00
2000.00	986.00
2001.00	992.00
2002.00	1030.00
2003.00	1034.00
2004.00	998.00
2005.00	967.00
2006.00	953.00
2007.00	932.00
2008.00	991.00
2009.00	946.00
2010.00	973.00
2011.00	947.00
2012.00	870.00
2013.00	940.00
2014.00	881.00
2015.00	898.00
2016.00	838.00
2017.00	835.00
2018.00	841.00
2019.00	867.00
2020.00	894.00
2021.00	879.00
2022.00	851.00
2023.00	904.00
2024.00	886.00
2025.00	877.00
2026.00	826.00
2027.00	823.00
2028.00	834.00
2029.00	872.00
2030.00	849.00
2031.00	810.00
2032.00	798.00
2033.00	799.00
2034.00	832.00
2035.00	766.00
2036.00	821.00
2037.00	781.00
2038.00	778.00
2039.00	737.00
2040.00	712.00
2041.00	818.00
2042.00	721.00
2043.00	733.00
2044.00	747.00
2045.00	740.00
2046.00	718.00
2047.00	753.00
2048.00	 0.00
