Date:	2023-09-18		
Time:	20:18		
Sample name:	Pellets		
Position:	567.600011	mm	
Sample surface:	5.895648	cm	
Tube anode:	Mo		
Tube voltage:	30	kV	
Tube current:	50	mA	
Comments	not in position		
Gain	5.810000		
peaking_time	0.300000	m-sec	
trigger_threshold	30.000000	V	
mca_bin_width	2.000000	no:	
number_mca_channels	2048.000000	no:	
gap_time	0.100000	m-sec	
trigger_peaking_time	0.050000	m-sec	
livetime	17.467374	seconds	
runtime	20.000073	seconds	
input_count_rate	103658.568053	cps	
output_count_rate	90531.819559	cps	
triggers	2008590.000000	seconds	
events_in_run	1802316.000000	seconds	
channel	content		
 1.00	 0.00
 2.00	 0.00
 3.00	 0.00
 4.00	 0.00
 5.00	 0.00
 6.00	 0.00
 7.00	 0.00
 8.00	 0.00
 9.00	 0.00
10.00	 0.00
11.00	 0.00
12.00	 0.00
13.00	 0.00
14.00	 0.00
15.00	 0.00
16.00	 0.00
17.00	 0.00
18.00	 0.00
19.00	 0.00
20.00	 0.00
21.00	 0.00
22.00	 0.00
23.00	 0.00
24.00	 0.00
25.00	 0.00
26.00	 0.00
27.00	 0.00
28.00	 0.00
29.00	 0.00
30.00	 0.00
31.00	 0.00
32.00	 0.00
33.00	 1.00
34.00	 3.00
35.00	 8.00
36.00	11.00
37.00	11.00
38.00	12.00
39.00	20.00
40.00	39.00
41.00	46.00
42.00	69.00
43.00	77.00
44.00	87.00
45.00	109.00
46.00	142.00
47.00	158.00
48.00	172.00
49.00	155.00
50.00	188.00
51.00	199.00
52.00	215.00
53.00	270.00
54.00	253.00
55.00	299.00
56.00	286.00
57.00	327.00
58.00	297.00
59.00	291.00
60.00	305.00
61.00	303.00
62.00	324.00
63.00	306.00
64.00	309.00
65.00	314.00
66.00	310.00
67.00	350.00
68.00	349.00
69.00	362.00
70.00	361.00
71.00	343.00
72.00	325.00
73.00	334.00
74.00	323.00
75.00	329.00
76.00	305.00
77.00	324.00
78.00	316.00
79.00	328.00
80.00	327.00
81.00	330.00
82.00	321.00
83.00	286.00
84.00	316.00
85.00	302.00
86.00	315.00
87.00	296.00
88.00	303.00
89.00	308.00
90.00	295.00
91.00	312.00
92.00	296.00
93.00	310.00
94.00	282.00
95.00	266.00
96.00	283.00
97.00	276.00
98.00	305.00
99.00	314.00
100.00	267.00
101.00	277.00
102.00	272.00
103.00	298.00
104.00	250.00
105.00	289.00
106.00	278.00
107.00	282.00
108.00	281.00
109.00	236.00
110.00	250.00
111.00	238.00
112.00	230.00
113.00	243.00
114.00	250.00
115.00	272.00
116.00	243.00
117.00	256.00
118.00	244.00
119.00	274.00
120.00	259.00
121.00	237.00
122.00	228.00
123.00	225.00
124.00	252.00
125.00	198.00
126.00	217.00
127.00	218.00
128.00	186.00
129.00	176.00
130.00	176.00
131.00	204.00
132.00	207.00
133.00	184.00
134.00	202.00
135.00	281.00
136.00	297.00
137.00	351.00
138.00	550.00
139.00	807.00
140.00	1083.00
141.00	1461.00
142.00	1698.00
143.00	1971.00
144.00	2137.00
145.00	2226.00
146.00	2066.00
147.00	1788.00
148.00	1554.00
149.00	1218.00
150.00	974.00
151.00	809.00
152.00	718.00
153.00	577.00
154.00	540.00
155.00	485.00
156.00	417.00
157.00	404.00
158.00	417.00
159.00	542.00
160.00	839.00
161.00	1263.00
162.00	2211.00
163.00	3552.00
164.00	5202.00
165.00	7354.00
166.00	9689.00
167.00	11602.00
168.00	13049.00
169.00	13533.00
170.00	13051.00
171.00	11660.00
172.00	9727.00
173.00	7687.00
174.00	5765.00
175.00	4004.00
176.00	2768.00
177.00	2083.00
178.00	1538.00
179.00	1162.00
180.00	968.00
181.00	922.00
182.00	810.00
183.00	679.00
184.00	811.00
185.00	989.00
186.00	968.00
187.00	1138.00
188.00	1261.00
189.00	1280.00
190.00	1202.00
191.00	1187.00
192.00	982.00
193.00	901.00
194.00	739.00
195.00	556.00
196.00	476.00
197.00	396.00
198.00	335.00
199.00	241.00
200.00	218.00
201.00	229.00
202.00	221.00
203.00	218.00
204.00	208.00
205.00	198.00
206.00	178.00
207.00	194.00
208.00	193.00
209.00	195.00
210.00	189.00
211.00	184.00
212.00	220.00
213.00	203.00
214.00	205.00
215.00	244.00
216.00	264.00
217.00	301.00
218.00	279.00
219.00	323.00
220.00	367.00
221.00	327.00
222.00	334.00
223.00	345.00
224.00	289.00
225.00	277.00
226.00	240.00
227.00	242.00
228.00	210.00
229.00	204.00
230.00	172.00
231.00	178.00
232.00	190.00
233.00	182.00
234.00	170.00
235.00	170.00
236.00	180.00
237.00	184.00
238.00	164.00
239.00	172.00
240.00	176.00
241.00	186.00
242.00	211.00
243.00	167.00
244.00	166.00
245.00	174.00
246.00	170.00
247.00	155.00
248.00	150.00
249.00	203.00
250.00	209.00
251.00	179.00
252.00	181.00
253.00	215.00
254.00	227.00
255.00	194.00
256.00	200.00
257.00	206.00
258.00	189.00
259.00	187.00
260.00	201.00
261.00	206.00
262.00	238.00
263.00	241.00
264.00	235.00
265.00	238.00
266.00	270.00
267.00	268.00
268.00	301.00
269.00	288.00
270.00	266.00
271.00	238.00
272.00	274.00
273.00	229.00
274.00	248.00
275.00	286.00
276.00	291.00
277.00	338.00
278.00	446.00
279.00	579.00
280.00	825.00
281.00	1004.00
282.00	1322.00
283.00	1523.00
284.00	1835.00
285.00	2169.00
286.00	2266.00
287.00	2289.00
288.00	2299.00
289.00	1980.00
290.00	1855.00
291.00	1526.00
292.00	1197.00
293.00	874.00
294.00	657.00
295.00	570.00
296.00	421.00
297.00	369.00
298.00	281.00
299.00	279.00
300.00	293.00
301.00	271.00
302.00	309.00
303.00	345.00
304.00	383.00
305.00	454.00
306.00	596.00
307.00	656.00
308.00	749.00
309.00	992.00
310.00	1445.00
311.00	1915.00
312.00	2839.00
313.00	3987.00
314.00	5591.00
315.00	7659.00
316.00	10039.00
317.00	12752.00
318.00	15311.00
319.00	17523.00
320.00	18841.00
321.00	19480.00
322.00	19212.00
323.00	18199.00
324.00	16013.00
325.00	13589.00
326.00	10881.00
327.00	8284.00
328.00	5979.00
329.00	4195.00
330.00	2852.00
331.00	1856.00
332.00	1212.00
333.00	841.00
334.00	650.00
335.00	553.00
336.00	592.00
337.00	610.00
338.00	807.00
339.00	965.00
340.00	1237.00
341.00	1588.00
342.00	2029.00
343.00	2867.00
344.00	3806.00
345.00	5229.00
346.00	6994.00
347.00	10042.00
348.00	14193.00
349.00	19802.00
350.00	26963.00
351.00	36441.00
352.00	47038.00
353.00	59270.00
354.00	70600.00
355.00	80804.00
356.00	88832.00
357.00	92404.00
358.00	92694.00
359.00	87722.00
360.00	79458.00
361.00	69132.00
362.00	56683.00
363.00	45381.00
364.00	33872.00
365.00	24482.00
366.00	16850.00
367.00	10932.00
368.00	7230.00
369.00	4552.00
370.00	2780.00
371.00	1722.00
372.00	1271.00
373.00	988.00
374.00	883.00
375.00	1005.00
376.00	1133.00
377.00	1413.00
378.00	1928.00
379.00	2516.00
380.00	3355.00
381.00	4480.00
382.00	5865.00
383.00	7364.00
384.00	8883.00
385.00	10692.00
386.00	11975.00
387.00	13140.00
388.00	13599.00
389.00	13778.00
390.00	13152.00
391.00	12360.00
392.00	10554.00
393.00	9015.00
394.00	7386.00
395.00	5774.00
396.00	4416.00
397.00	3124.00
398.00	2313.00
399.00	1634.00
400.00	1224.00
401.00	796.00
402.00	589.00
403.00	501.00
404.00	427.00
405.00	332.00
406.00	301.00
407.00	309.00
408.00	299.00
409.00	306.00
410.00	308.00
411.00	286.00
412.00	315.00
413.00	276.00
414.00	317.00
415.00	319.00
416.00	322.00
417.00	352.00
418.00	388.00
419.00	393.00
420.00	451.00
421.00	548.00
422.00	685.00
423.00	855.00
424.00	1175.00
425.00	1640.00
426.00	2373.00
427.00	3013.00
428.00	4057.00
429.00	5626.00
430.00	7023.00
431.00	8668.00
432.00	10222.00
433.00	11858.00
434.00	13217.00
435.00	14255.00
436.00	14489.00
437.00	14242.00
438.00	13690.00
439.00	12357.00
440.00	10977.00
441.00	9568.00
442.00	8131.00
443.00	6469.00
444.00	5232.00
445.00	4195.00
446.00	3372.00
447.00	2939.00
448.00	2566.00
449.00	2384.00
450.00	2203.00
451.00	2057.00
452.00	1882.00
453.00	1781.00
454.00	1634.00
455.00	1425.00
456.00	1326.00
457.00	1172.00
458.00	1122.00
459.00	1024.00
460.00	989.00
461.00	1097.00
462.00	1090.00
463.00	1172.00
464.00	1261.00
465.00	1372.00
466.00	1604.00
467.00	1748.00
468.00	1914.00
469.00	2076.00
470.00	2401.00
471.00	2556.00
472.00	2782.00
473.00	3076.00
474.00	3326.00
475.00	3503.00
476.00	3690.00
477.00	3573.00
478.00	3509.00
479.00	3403.00
480.00	3205.00
481.00	2929.00
482.00	2462.00
483.00	2299.00
484.00	1888.00
485.00	1591.00
486.00	1315.00
487.00	1106.00
488.00	1015.00
489.00	850.00
490.00	840.00
491.00	789.00
492.00	752.00
493.00	773.00
494.00	782.00
495.00	816.00
496.00	806.00
497.00	870.00
498.00	878.00
499.00	913.00
500.00	931.00
501.00	963.00
502.00	1001.00
503.00	1066.00
504.00	1049.00
505.00	1096.00
506.00	1152.00
507.00	1130.00
508.00	1194.00
509.00	1289.00
510.00	1176.00
511.00	1306.00
512.00	1339.00
513.00	1310.00
514.00	1407.00
515.00	1472.00
516.00	1589.00
517.00	1742.00
518.00	1892.00
519.00	1968.00
520.00	2163.00
521.00	2219.00
522.00	2324.00
523.00	2276.00
524.00	2398.00
525.00	2302.00
526.00	2296.00
527.00	2129.00
528.00	2001.00
529.00	1925.00
530.00	1762.00
531.00	1733.00
532.00	1656.00
533.00	1578.00
534.00	1495.00
535.00	1501.00
536.00	1486.00
537.00	1507.00
538.00	1469.00
539.00	1514.00
540.00	1541.00
541.00	1563.00
542.00	1548.00
543.00	1546.00
544.00	1596.00
545.00	1585.00
546.00	1599.00
547.00	1593.00
548.00	1668.00
549.00	1620.00
550.00	1659.00
551.00	1681.00
552.00	1776.00
553.00	1845.00
554.00	1993.00
555.00	2249.00
556.00	2761.00
557.00	3367.00
558.00	4064.00
559.00	5093.00
560.00	6340.00
561.00	8170.00
562.00	10397.00
563.00	12526.00
564.00	15353.00
565.00	17987.00
566.00	20318.00
567.00	22500.00
568.00	24037.00
569.00	25198.00
570.00	25298.00
571.00	24738.00
572.00	23409.00
573.00	21490.00
574.00	19592.00
575.00	16839.00
576.00	14157.00
577.00	11774.00
578.00	9310.00
579.00	7464.00
580.00	5788.00
581.00	4567.00
582.00	3629.00
583.00	2971.00
584.00	2582.00
585.00	2240.00
586.00	2043.00
587.00	1990.00
588.00	1990.00
589.00	1973.00
590.00	2065.00
591.00	2153.00
592.00	2134.00
593.00	2380.00
594.00	2401.00
595.00	2609.00
596.00	2909.00
597.00	3181.00
598.00	3618.00
599.00	4464.00
600.00	5758.00
601.00	7534.00
602.00	10413.00
603.00	14812.00
604.00	20688.00
605.00	29741.00
606.00	41839.00
607.00	58064.00
608.00	79570.00
609.00	104888.00
610.00	137016.00
611.00	171985.00
612.00	210987.00
613.00	250913.00
614.00	290070.00
615.00	326526.00
616.00	357488.00
617.00	380746.00
618.00	388048.00
619.00	388308.00
620.00	375091.00
621.00	351644.00
622.00	321442.00
623.00	284214.00
624.00	244108.00
625.00	203020.00
626.00	165225.00
627.00	129895.00
628.00	99360.00
629.00	74710.00
630.00	54720.00
631.00	39376.00
632.00	28140.00
633.00	19890.00
634.00	13993.00
635.00	9903.00
636.00	7342.00
637.00	5740.00
638.00	4592.00
639.00	3873.00
640.00	3510.00
641.00	3189.00
642.00	3121.00
643.00	2918.00
644.00	2988.00
645.00	3027.00
646.00	2997.00
647.00	3009.00
648.00	3025.00
649.00	2995.00
650.00	3214.00
651.00	3180.00
652.00	3188.00
653.00	3206.00
654.00	3355.00
655.00	3430.00
656.00	3413.00
657.00	3588.00
658.00	3723.00
659.00	3800.00
660.00	4004.00
661.00	4270.00
662.00	4418.00
663.00	4882.00
664.00	5475.00
665.00	6080.00
666.00	6929.00
667.00	8008.00
668.00	9481.00
669.00	11709.00
670.00	14331.00
671.00	17586.00
672.00	21661.00
673.00	26180.00
674.00	31486.00
675.00	36786.00
676.00	42309.00
677.00	47742.00
678.00	53124.00
679.00	57465.00
680.00	60245.00
681.00	61406.00
682.00	61542.00
683.00	60010.00
684.00	57012.00
685.00	52447.00
686.00	47698.00
687.00	41553.00
688.00	35915.00
689.00	29629.00
690.00	24311.00
691.00	19713.00
692.00	15834.00
693.00	12418.00
694.00	9580.00
695.00	7624.00
696.00	5897.00
697.00	4959.00
698.00	4166.00
699.00	3595.00
700.00	3262.00
701.00	3251.00
702.00	3053.00
703.00	3064.00
704.00	3019.00
705.00	2941.00
706.00	3158.00
707.00	3120.00
708.00	3218.00
709.00	3301.00
710.00	3447.00
711.00	3566.00
712.00	3640.00
713.00	3793.00
714.00	3989.00
715.00	4141.00
716.00	4413.00
717.00	4534.00
718.00	4644.00
719.00	4706.00
720.00	4886.00
721.00	4726.00
722.00	4631.00
723.00	4689.00
724.00	4618.00
725.00	4676.00
726.00	4262.00
727.00	4106.00
728.00	3908.00
729.00	3787.00
730.00	3541.00
731.00	3451.00
732.00	3325.00
733.00	3111.00
734.00	3111.00
735.00	2938.00
736.00	2839.00
737.00	2911.00
738.00	2838.00
739.00	2855.00
740.00	2786.00
741.00	2663.00
742.00	2720.00
743.00	2718.00
744.00	2773.00
745.00	2602.00
746.00	2706.00
747.00	2832.00
748.00	2702.00
749.00	2755.00
750.00	2725.00
751.00	2793.00
752.00	2783.00
753.00	2755.00
754.00	2775.00
755.00	2779.00
756.00	2747.00
757.00	3019.00
758.00	2952.00
759.00	2958.00
760.00	3047.00
761.00	3291.00
762.00	3277.00
763.00	3311.00
764.00	3498.00
765.00	3521.00
766.00	3816.00
767.00	4070.00
768.00	4189.00
769.00	4469.00
770.00	4750.00
771.00	5025.00
772.00	5425.00
773.00	5506.00
774.00	5672.00
775.00	5841.00
776.00	5861.00
777.00	5938.00
778.00	6027.00
779.00	5885.00
780.00	5937.00
781.00	5694.00
782.00	5567.00
783.00	5416.00
784.00	5247.00
785.00	5123.00
786.00	5044.00
787.00	4937.00
788.00	4735.00
789.00	4837.00
790.00	4921.00
791.00	4706.00
792.00	4739.00
793.00	4797.00
794.00	4755.00
795.00	4803.00
796.00	4947.00
797.00	4908.00
798.00	4980.00
799.00	5020.00
800.00	4905.00
801.00	4992.00
802.00	4935.00
803.00	5056.00
804.00	4987.00
805.00	5043.00
806.00	5023.00
807.00	4806.00
808.00	4967.00
809.00	5015.00
810.00	5012.00
811.00	5046.00
812.00	4901.00
813.00	4919.00
814.00	5051.00
815.00	4841.00
816.00	4855.00
817.00	4844.00
818.00	4821.00
819.00	4838.00
820.00	4923.00
821.00	5149.00
822.00	5247.00
823.00	5259.00
824.00	5531.00
825.00	5714.00
826.00	5902.00
827.00	6340.00
828.00	6639.00
829.00	6837.00
830.00	6850.00
831.00	7182.00
832.00	7328.00
833.00	7259.00
834.00	7245.00
835.00	7300.00
836.00	7133.00
837.00	7112.00
838.00	6785.00
839.00	6533.00
840.00	6298.00
841.00	6064.00
842.00	5801.00
843.00	5665.00
844.00	5430.00
845.00	5332.00
846.00	5188.00
847.00	5166.00
848.00	5101.00
849.00	5155.00
850.00	5032.00
851.00	4896.00
852.00	5182.00
853.00	5111.00
854.00	5223.00
855.00	5106.00
856.00	5320.00
857.00	5175.00
858.00	5175.00
859.00	5293.00
860.00	5263.00
861.00	5280.00
862.00	5320.00
863.00	5299.00
864.00	5279.00
865.00	5185.00
866.00	5288.00
867.00	5074.00
868.00	5118.00
869.00	5178.00
870.00	5266.00
871.00	5163.00
872.00	5227.00
873.00	5181.00
874.00	5152.00
875.00	5263.00
876.00	5391.00
877.00	5338.00
878.00	5393.00
879.00	5305.00
880.00	5448.00
881.00	5588.00
882.00	5654.00
883.00	5702.00
884.00	5698.00
885.00	5793.00
886.00	5828.00
887.00	5928.00
888.00	5824.00
889.00	5948.00
890.00	6194.00
891.00	5851.00
892.00	6130.00
893.00	6011.00
894.00	6071.00
895.00	6154.00
896.00	6211.00
897.00	6078.00
898.00	5988.00
899.00	5913.00
900.00	5977.00
901.00	5952.00
902.00	5899.00
903.00	5967.00
904.00	5851.00
905.00	6016.00
906.00	5927.00
907.00	5904.00
908.00	5952.00
909.00	5780.00
910.00	5961.00
911.00	6067.00
912.00	5926.00
913.00	6148.00
914.00	6104.00
915.00	6300.00
916.00	6271.00
917.00	6341.00
918.00	6196.00
919.00	6416.00
920.00	6512.00
921.00	6388.00
922.00	6642.00
923.00	6637.00
924.00	6575.00
925.00	6647.00
926.00	6667.00
927.00	6462.00
928.00	6635.00
929.00	6566.00
930.00	6559.00
931.00	6555.00
932.00	6551.00
933.00	6600.00
934.00	6470.00
935.00	6439.00
936.00	6392.00
937.00	6381.00
938.00	6326.00
939.00	6308.00
940.00	6271.00
941.00	6216.00
942.00	6292.00
943.00	6185.00
944.00	6113.00
945.00	6257.00
946.00	6079.00
947.00	6189.00
948.00	6306.00
949.00	6194.00
950.00	6215.00
951.00	6135.00
952.00	6191.00
953.00	6171.00
954.00	6143.00
955.00	6176.00
956.00	6303.00
957.00	6308.00
958.00	6312.00
959.00	6272.00
960.00	6287.00
961.00	6295.00
962.00	6428.00
963.00	6416.00
964.00	6402.00
965.00	6480.00
966.00	6519.00
967.00	6334.00
968.00	6448.00
969.00	6471.00
970.00	6371.00
971.00	6494.00
972.00	6523.00
973.00	6597.00
974.00	6737.00
975.00	6548.00
976.00	6559.00
977.00	6508.00
978.00	6448.00
979.00	6448.00
980.00	6497.00
981.00	6522.00
982.00	6494.00
983.00	6501.00
984.00	6480.00
985.00	6496.00
986.00	6504.00
987.00	6467.00
988.00	6360.00
989.00	6542.00
990.00	6458.00
991.00	6491.00
992.00	6277.00
993.00	6372.00
994.00	6367.00
995.00	6544.00
996.00	6517.00
997.00	6369.00
998.00	6431.00
999.00	6288.00
1000.00	6437.00
1001.00	6465.00
1002.00	6247.00
1003.00	6380.00
1004.00	6474.00
1005.00	6573.00
1006.00	6501.00
1007.00	6556.00
1008.00	6651.00
1009.00	6667.00
1010.00	6618.00
1011.00	6644.00
1012.00	6674.00
1013.00	6808.00
1014.00	6850.00
1015.00	6932.00
1016.00	6815.00
1017.00	6985.00
1018.00	6913.00
1019.00	6951.00
1020.00	6742.00
1021.00	6718.00
1022.00	6648.00
1023.00	6633.00
1024.00	6751.00
1025.00	6541.00
1026.00	6694.00
1027.00	6713.00
1028.00	6511.00
1029.00	6465.00
1030.00	6354.00
1031.00	6514.00
1032.00	6335.00
1033.00	6320.00
1034.00	6299.00
1035.00	6293.00
1036.00	6248.00
1037.00	6428.00
1038.00	6405.00
1039.00	6443.00
1040.00	6325.00
1041.00	6442.00
1042.00	6372.00
1043.00	6335.00
1044.00	6414.00
1045.00	6434.00
1046.00	6346.00
1047.00	6773.00
1048.00	6448.00
1049.00	6521.00
1050.00	6621.00
1051.00	6486.00
1052.00	6595.00
1053.00	6602.00
1054.00	6602.00
1055.00	6674.00
1056.00	6541.00
1057.00	6526.00
1058.00	6524.00
1059.00	6612.00
1060.00	6587.00
1061.00	6579.00
1062.00	6620.00
1063.00	6566.00
1064.00	6648.00
1065.00	6732.00
1066.00	6668.00
1067.00	6663.00
1068.00	6640.00
1069.00	6690.00
1070.00	6494.00
1071.00	6751.00
1072.00	6789.00
1073.00	6717.00
1074.00	6573.00
1075.00	6808.00
1076.00	6744.00
1077.00	6651.00
1078.00	6711.00
1079.00	6814.00
1080.00	6709.00
1081.00	6692.00
1082.00	6845.00
1083.00	6822.00
1084.00	6995.00
1085.00	6796.00
1086.00	6750.00
1087.00	6829.00
1088.00	6881.00
1089.00	6903.00
1090.00	6788.00
1091.00	6747.00
1092.00	6788.00
1093.00	6826.00
1094.00	6965.00
1095.00	6711.00
1096.00	7031.00
1097.00	6929.00
1098.00	6791.00
1099.00	6875.00
1100.00	6861.00
1101.00	6832.00
1102.00	6754.00
1103.00	6920.00
1104.00	7006.00
1105.00	7002.00
1106.00	6847.00
1107.00	6887.00
1108.00	6919.00
1109.00	6968.00
1110.00	6841.00
1111.00	6858.00
1112.00	7129.00
1113.00	6932.00
1114.00	6857.00
1115.00	6916.00
1116.00	6881.00
1117.00	6881.00
1118.00	7011.00
1119.00	6878.00
1120.00	7048.00
1121.00	6802.00
1122.00	6868.00
1123.00	6860.00
1124.00	6934.00
1125.00	7070.00
1126.00	6899.00
1127.00	6848.00
1128.00	6877.00
1129.00	6962.00
1130.00	6854.00
1131.00	6791.00
1132.00	6924.00
1133.00	6788.00
1134.00	7026.00
1135.00	6890.00
1136.00	6905.00
1137.00	6869.00
1138.00	6790.00
1139.00	6889.00
1140.00	6786.00
1141.00	6819.00
1142.00	6936.00
1143.00	6856.00
1144.00	6813.00
1145.00	6838.00
1146.00	6924.00
1147.00	6858.00
1148.00	6966.00
1149.00	6957.00
1150.00	6753.00
1151.00	6882.00
1152.00	6953.00
1153.00	6865.00
1154.00	6645.00
1155.00	6797.00
1156.00	6885.00
1157.00	6890.00
1158.00	6649.00
1159.00	6690.00
1160.00	6862.00
1161.00	6858.00
1162.00	6674.00
1163.00	6833.00
1164.00	6610.00
1165.00	6747.00
1166.00	6742.00
1167.00	6806.00
1168.00	6763.00
1169.00	6665.00
1170.00	6839.00
1171.00	6744.00
1172.00	6887.00
1173.00	6930.00
1174.00	6942.00
1175.00	6907.00
1176.00	6772.00
1177.00	6821.00
1178.00	6829.00
1179.00	6852.00
1180.00	6788.00
1181.00	6869.00
1182.00	6847.00
1183.00	6956.00
1184.00	6697.00
1185.00	6959.00
1186.00	6931.00
1187.00	6946.00
1188.00	6884.00
1189.00	6897.00
1190.00	6866.00
1191.00	6940.00
1192.00	6961.00
1193.00	6996.00
1194.00	6859.00
1195.00	6823.00
1196.00	6963.00
1197.00	7004.00
1198.00	6931.00
1199.00	6884.00
1200.00	6894.00
1201.00	6898.00
1202.00	6980.00
1203.00	6937.00
1204.00	6955.00
1205.00	7004.00
1206.00	6999.00
1207.00	7134.00
1208.00	7131.00
1209.00	7144.00
1210.00	7165.00
1211.00	7220.00
1212.00	7094.00
1213.00	7141.00
1214.00	7191.00
1215.00	7252.00
1216.00	7253.00
1217.00	7138.00
1218.00	7229.00
1219.00	7360.00
1220.00	7382.00
1221.00	7320.00
1222.00	7360.00
1223.00	7490.00
1224.00	7482.00
1225.00	7462.00
1226.00	7486.00
1227.00	7408.00
1228.00	7390.00
1229.00	7365.00
1230.00	7573.00
1231.00	7622.00
1232.00	7587.00
1233.00	7690.00
1234.00	7382.00
1235.00	7428.00
1236.00	7436.00
1237.00	7448.00
1238.00	7412.00
1239.00	7582.00
1240.00	7384.00
1241.00	7334.00
1242.00	7255.00
1243.00	7285.00
1244.00	7183.00
1245.00	7163.00
1246.00	7000.00
1247.00	7129.00
1248.00	7119.00
1249.00	7000.00
1250.00	7063.00
1251.00	7052.00
1252.00	7000.00
1253.00	7074.00
1254.00	7086.00
1255.00	6814.00
1256.00	7041.00
1257.00	6936.00
1258.00	6955.00
1259.00	7082.00
1260.00	6811.00
1261.00	6905.00
1262.00	7076.00
1263.00	6800.00
1264.00	6934.00
1265.00	6927.00
1266.00	6906.00
1267.00	6866.00
1268.00	6927.00
1269.00	6864.00
1270.00	6904.00
1271.00	6991.00
1272.00	7078.00
1273.00	6960.00
1274.00	7129.00
1275.00	7244.00
1276.00	7263.00
1277.00	7203.00
1278.00	7226.00
1279.00	7354.00
1280.00	7431.00
1281.00	7469.00
1282.00	7611.00
1283.00	7725.00
1284.00	7656.00
1285.00	7980.00
1286.00	8085.00
1287.00	8064.00
1288.00	8059.00
1289.00	8015.00
1290.00	7941.00
1291.00	8170.00
1292.00	8061.00
1293.00	8106.00
1294.00	8123.00
1295.00	7985.00
1296.00	7887.00
1297.00	7760.00
1298.00	7674.00
1299.00	7780.00
1300.00	7689.00
1301.00	7463.00
1302.00	7302.00
1303.00	7373.00
1304.00	7199.00
1305.00	7309.00
1306.00	7178.00
1307.00	6864.00
1308.00	6967.00
1309.00	7006.00
1310.00	6893.00
1311.00	6816.00
1312.00	6962.00
1313.00	6876.00
1314.00	6883.00
1315.00	6848.00
1316.00	6821.00
1317.00	6861.00
1318.00	6778.00
1319.00	6701.00
1320.00	6732.00
1321.00	6728.00
1322.00	6716.00
1323.00	6714.00
1324.00	6879.00
1325.00	6709.00
1326.00	6567.00
1327.00	6597.00
1328.00	6707.00
1329.00	6581.00
1330.00	6682.00
1331.00	6651.00
1332.00	6612.00
1333.00	6572.00
1334.00	6867.00
1335.00	6589.00
1336.00	6681.00
1337.00	6702.00
1338.00	6703.00
1339.00	6533.00
1340.00	6705.00
1341.00	6714.00
1342.00	6615.00
1343.00	6698.00
1344.00	6743.00
1345.00	6815.00
1346.00	6791.00
1347.00	6957.00
1348.00	6972.00
1349.00	6843.00
1350.00	7121.00
1351.00	7290.00
1352.00	7315.00
1353.00	7399.00
1354.00	7603.00
1355.00	7560.00
1356.00	7905.00
1357.00	7926.00
1358.00	8097.00
1359.00	8177.00
1360.00	8129.00
1361.00	8343.00
1362.00	8550.00
1363.00	8557.00
1364.00	8513.00
1365.00	8398.00
1366.00	8230.00
1367.00	8357.00
1368.00	8176.00
1369.00	8092.00
1370.00	8121.00
1371.00	7944.00
1372.00	7571.00
1373.00	7488.00
1374.00	7477.00
1375.00	7287.00
1376.00	6989.00
1377.00	6915.00
1378.00	6759.00
1379.00	6576.00
1380.00	6574.00
1381.00	6398.00
1382.00	6362.00
1383.00	6292.00
1384.00	6161.00
1385.00	6248.00
1386.00	6168.00
1387.00	6250.00
1388.00	6136.00
1389.00	6121.00
1390.00	6007.00
1391.00	6196.00
1392.00	6024.00
1393.00	6025.00
1394.00	5827.00
1395.00	5927.00
1396.00	6058.00
1397.00	5905.00
1398.00	5914.00
1399.00	5967.00
1400.00	5943.00
1401.00	5896.00
1402.00	5904.00
1403.00	5925.00
1404.00	5929.00
1405.00	5922.00
1406.00	5853.00
1407.00	5859.00
1408.00	5877.00
1409.00	5931.00
1410.00	5940.00
1411.00	5863.00
1412.00	5776.00
1413.00	5903.00
1414.00	5959.00
1415.00	5861.00
1416.00	5850.00
1417.00	5888.00
1418.00	5920.00
1419.00	5972.00
1420.00	5859.00
1421.00	5843.00
1422.00	5822.00
1423.00	5887.00
1424.00	5984.00
1425.00	5930.00
1426.00	6031.00
1427.00	6050.00
1428.00	5960.00
1429.00	6070.00
1430.00	6188.00
1431.00	6085.00
1432.00	6094.00
1433.00	6249.00
1434.00	6057.00
1435.00	6277.00
1436.00	6059.00
1437.00	6176.00
1438.00	6265.00
1439.00	6193.00
1440.00	6260.00
1441.00	6181.00
1442.00	6154.00
1443.00	6200.00
1444.00	6348.00
1445.00	6125.00
1446.00	6230.00
1447.00	6198.00
1448.00	6071.00
1449.00	5963.00
1450.00	6063.00
1451.00	5915.00
1452.00	5908.00
1453.00	6036.00
1454.00	5900.00
1455.00	5728.00
1456.00	5761.00
1457.00	5730.00
1458.00	5808.00
1459.00	5697.00
1460.00	5781.00
1461.00	5685.00
1462.00	5763.00
1463.00	5659.00
1464.00	5587.00
1465.00	5753.00
1466.00	5711.00
1467.00	5645.00
1468.00	5703.00
1469.00	5731.00
1470.00	5769.00
1471.00	5592.00
1472.00	5681.00
1473.00	5732.00
1474.00	5495.00
1475.00	5575.00
1476.00	5545.00
1477.00	5573.00
1478.00	5410.00
1479.00	5588.00
1480.00	5568.00
1481.00	5619.00
1482.00	5562.00
1483.00	5703.00
1484.00	5403.00
1485.00	5584.00
1486.00	5662.00
1487.00	5606.00
1488.00	5533.00
1489.00	5571.00
1490.00	5560.00
1491.00	5601.00
1492.00	5593.00
1493.00	5782.00
1494.00	5693.00
1495.00	5535.00
1496.00	5447.00
1497.00	5603.00
1498.00	5657.00
1499.00	5703.00
1500.00	5727.00
1501.00	5801.00
1502.00	5918.00
1503.00	5803.00
1504.00	6047.00
1505.00	5921.00
1506.00	5944.00
1507.00	6162.00
1508.00	6257.00
1509.00	6258.00
1510.00	6384.00
1511.00	6490.00
1512.00	6553.00
1513.00	6587.00
1514.00	6741.00
1515.00	6850.00
1516.00	6916.00
1517.00	6911.00
1518.00	6920.00
1519.00	7020.00
1520.00	7027.00
1521.00	6788.00
1522.00	6922.00
1523.00	6942.00
1524.00	7010.00
1525.00	6953.00
1526.00	6736.00
1527.00	6768.00
1528.00	6796.00
1529.00	6680.00
1530.00	6523.00
1531.00	6459.00
1532.00	6435.00
1533.00	6343.00
1534.00	6292.00
1535.00	6459.00
1536.00	6314.00
1537.00	6310.00
1538.00	6179.00
1539.00	6108.00
1540.00	6162.00
1541.00	6051.00
1542.00	6132.00
1543.00	6176.00
1544.00	6116.00
1545.00	6228.00
1546.00	6211.00
1547.00	6335.00
1548.00	6278.00
1549.00	6354.00
1550.00	6387.00
1551.00	6494.00
1552.00	6625.00
1553.00	6589.00
1554.00	6776.00
1555.00	6881.00
1556.00	6910.00
1557.00	6886.00
1558.00	7130.00
1559.00	7186.00
1560.00	7265.00
1561.00	7290.00
1562.00	7449.00
1563.00	7589.00
1564.00	7620.00
1565.00	7798.00
1566.00	7872.00
1567.00	8147.00
1568.00	8069.00
1569.00	8175.00
1570.00	8421.00
1571.00	8397.00
1572.00	8532.00
1573.00	8817.00
1574.00	8885.00
1575.00	8796.00
1576.00	9048.00
1577.00	8964.00
1578.00	9200.00
1579.00	9340.00
1580.00	9432.00
1581.00	9441.00
1582.00	9443.00
1583.00	9806.00
1584.00	9643.00
1585.00	9589.00
1586.00	9559.00
1587.00	9690.00
1588.00	9845.00
1589.00	9827.00
1590.00	9817.00
1591.00	9564.00
1592.00	9650.00
1593.00	9545.00
1594.00	9533.00
1595.00	9445.00
1596.00	9610.00
1597.00	9228.00
1598.00	9370.00
1599.00	9116.00
1600.00	9184.00
1601.00	8951.00
1602.00	9007.00
1603.00	8917.00
1604.00	8588.00
1605.00	8695.00
1606.00	8473.00
1607.00	8210.00
1608.00	7983.00
1609.00	8222.00
1610.00	7880.00
1611.00	7804.00
1612.00	7614.00
1613.00	7383.00
1614.00	7410.00
1615.00	7175.00
1616.00	7161.00
1617.00	6978.00
1618.00	6837.00
1619.00	6892.00
1620.00	6619.00
1621.00	6442.00
1622.00	6412.00
1623.00	6247.00
1624.00	6158.00
1625.00	6140.00
1626.00	6037.00
1627.00	5842.00
1628.00	5823.00
1629.00	5707.00
1630.00	5654.00
1631.00	5509.00
1632.00	5503.00
1633.00	5528.00
1634.00	5300.00
1635.00	5331.00
1636.00	5226.00
1637.00	5134.00
1638.00	5081.00
1639.00	5205.00
1640.00	4972.00
1641.00	5006.00
1642.00	4822.00
1643.00	4986.00
1644.00	4919.00
1645.00	4857.00
1646.00	4720.00
1647.00	4843.00
1648.00	4768.00
1649.00	4651.00
1650.00	4697.00
1651.00	4819.00
1652.00	4643.00
1653.00	4697.00
1654.00	4659.00
1655.00	4547.00
1656.00	4652.00
1657.00	4601.00
1658.00	4836.00
1659.00	4840.00
1660.00	4893.00
1661.00	4966.00
1662.00	5052.00
1663.00	5246.00
1664.00	5197.00
1665.00	5639.00
1666.00	5561.00
1667.00	5883.00
1668.00	6077.00
1669.00	6167.00
1670.00	6588.00
1671.00	6711.00
1672.00	6917.00
1673.00	7220.00
1674.00	7407.00
1675.00	7673.00
1676.00	7798.00
1677.00	8074.00
1678.00	8158.00
1679.00	8337.00
1680.00	8305.00
1681.00	8550.00
1682.00	8611.00
1683.00	8411.00
1684.00	8423.00
1685.00	8417.00
1686.00	8087.00
1687.00	7995.00
1688.00	7862.00
1689.00	7415.00
1690.00	7248.00
1691.00	6965.00
1692.00	6679.00
1693.00	6391.00
1694.00	6381.00
1695.00	5828.00
1696.00	5688.00
1697.00	5377.00
1698.00	5143.00
1699.00	5099.00
1700.00	4512.00
1701.00	4703.00
1702.00	4384.00
1703.00	4455.00
1704.00	4248.00
1705.00	4155.00
1706.00	4053.00
1707.00	3973.00
1708.00	3951.00
1709.00	3893.00
1710.00	3903.00
1711.00	3797.00
1712.00	3708.00
1713.00	3855.00
1714.00	3617.00
1715.00	3609.00
1716.00	3665.00
1717.00	3607.00
1718.00	3531.00
1719.00	3568.00
1720.00	3554.00
1721.00	3527.00
1722.00	3417.00
1723.00	3586.00
1724.00	3576.00
1725.00	3514.00
1726.00	3505.00
1727.00	3465.00
1728.00	3679.00
1729.00	3412.00
1730.00	3582.00
1731.00	3532.00
1732.00	3540.00
1733.00	3424.00
1734.00	3618.00
1735.00	3533.00
1736.00	3501.00
1737.00	3571.00
1738.00	3597.00
1739.00	3531.00
1740.00	3605.00
1741.00	3522.00
1742.00	3665.00
1743.00	3504.00
1744.00	3584.00
1745.00	3603.00
1746.00	3602.00
1747.00	3567.00
1748.00	3642.00
1749.00	3565.00
1750.00	3595.00
1751.00	3600.00
1752.00	3631.00
1753.00	3517.00
1754.00	3600.00
1755.00	3766.00
1756.00	3710.00
1757.00	3618.00
1758.00	3747.00
1759.00	3751.00
1760.00	3619.00
1761.00	3823.00
1762.00	3699.00
1763.00	3722.00
1764.00	3738.00
1765.00	3672.00
1766.00	3612.00
1767.00	3732.00
1768.00	3709.00
1769.00	3815.00
1770.00	3733.00
1771.00	3572.00
1772.00	3660.00
1773.00	3782.00
1774.00	3649.00
1775.00	3615.00
1776.00	3587.00
1777.00	3653.00
1778.00	3696.00
1779.00	3654.00
1780.00	3640.00
1781.00	3558.00
1782.00	3543.00
1783.00	3516.00
1784.00	3420.00
1785.00	3460.00
1786.00	3398.00
1787.00	3384.00
1788.00	3451.00
1789.00	3346.00
1790.00	3207.00
1791.00	3251.00
1792.00	3205.00
1793.00	3278.00
1794.00	3304.00
1795.00	3213.00
1796.00	3062.00
1797.00	3134.00
1798.00	3125.00
1799.00	2968.00
1800.00	3041.00
1801.00	3019.00
1802.00	2946.00
1803.00	2879.00
1804.00	2985.00
1805.00	2861.00
1806.00	2847.00
1807.00	2773.00
1808.00	2834.00
1809.00	2701.00
1810.00	2759.00
1811.00	2631.00
1812.00	2620.00
1813.00	2629.00
1814.00	2575.00
1815.00	2596.00
1816.00	2566.00
1817.00	2548.00
1818.00	2429.00
1819.00	2496.00
1820.00	2533.00
1821.00	2449.00
1822.00	2506.00
1823.00	2346.00
1824.00	2409.00
1825.00	2370.00
1826.00	2334.00
1827.00	2295.00
1828.00	2286.00
1829.00	2301.00
1830.00	2284.00
1831.00	2261.00
1832.00	2339.00
1833.00	2274.00
1834.00	2267.00
1835.00	2134.00
1836.00	2154.00
1837.00	2160.00
1838.00	2243.00
1839.00	2149.00
1840.00	2087.00
1841.00	2138.00
1842.00	2013.00
1843.00	2051.00
1844.00	2146.00
1845.00	2015.00
1846.00	2047.00
1847.00	1977.00
1848.00	2003.00
1849.00	2004.00
1850.00	2090.00
1851.00	2037.00
1852.00	1904.00
1853.00	1877.00
1854.00	1918.00
1855.00	1895.00
1856.00	1924.00
1857.00	1894.00
1858.00	1781.00
1859.00	1948.00
1860.00	1912.00
1861.00	1878.00
1862.00	1837.00
1863.00	1823.00
1864.00	1843.00
1865.00	1802.00
1866.00	1855.00
1867.00	1820.00
1868.00	1847.00
1869.00	1921.00
1870.00	1876.00
1871.00	1825.00
1872.00	1806.00
1873.00	1872.00
1874.00	1888.00
1875.00	2015.00
1876.00	1956.00
1877.00	1948.00
1878.00	1921.00
1879.00	1985.00
1880.00	2047.00
1881.00	2047.00
1882.00	2054.00
1883.00	2128.00
1884.00	2131.00
1885.00	2164.00
1886.00	2248.00
1887.00	2193.00
1888.00	2164.00
1889.00	2224.00
1890.00	2128.00
1891.00	2203.00
1892.00	2213.00
1893.00	2141.00
1894.00	2195.00
1895.00	2070.00
1896.00	2046.00
1897.00	2028.00
1898.00	1907.00
1899.00	1881.00
1900.00	1949.00
1901.00	1822.00
1902.00	1806.00
1903.00	1755.00
1904.00	1755.00
1905.00	1675.00
1906.00	1636.00
1907.00	1653.00
1908.00	1618.00
1909.00	1520.00
1910.00	1487.00
1911.00	1507.00
1912.00	1527.00
1913.00	1573.00
1914.00	1599.00
1915.00	1527.00
1916.00	1456.00
1917.00	1521.00
1918.00	1482.00
1919.00	1500.00
1920.00	1460.00
1921.00	1529.00
1922.00	1478.00
1923.00	1489.00
1924.00	1467.00
1925.00	1441.00
1926.00	1467.00
1927.00	1326.00
1928.00	1357.00
1929.00	1368.00
1930.00	1322.00
1931.00	1277.00
1932.00	1359.00
1933.00	1375.00
1934.00	1271.00
1935.00	1274.00
1936.00	1284.00
1937.00	1346.00
1938.00	1259.00
1939.00	1222.00
1940.00	1186.00
1941.00	1194.00
1942.00	1202.00
1943.00	1147.00
1944.00	1184.00
1945.00	1225.00
1946.00	1222.00
1947.00	1179.00
1948.00	1189.00
1949.00	1202.00
1950.00	1135.00
1951.00	1138.00
1952.00	1178.00
1953.00	1134.00
1954.00	1189.00
1955.00	1119.00
1956.00	1166.00
1957.00	1160.00
1958.00	1082.00
1959.00	1151.00
1960.00	1133.00
1961.00	1048.00
1962.00	1129.00
1963.00	1111.00
1964.00	1096.00
1965.00	1138.00
1966.00	1105.00
1967.00	1105.00
1968.00	1074.00
1969.00	1089.00
1970.00	1047.00
1971.00	1064.00
1972.00	1106.00
1973.00	1099.00
1974.00	1076.00
1975.00	1051.00
1976.00	989.00
1977.00	1035.00
1978.00	1079.00
1979.00	971.00
1980.00	1045.00
1981.00	1090.00
1982.00	1069.00
1983.00	950.00
1984.00	948.00
1985.00	1042.00
1986.00	1042.00
1987.00	964.00
1988.00	1006.00
1989.00	990.00
1990.00	934.00
1991.00	942.00
1992.00	917.00
1993.00	903.00
1994.00	970.00
1995.00	914.00
1996.00	857.00
1997.00	879.00
1998.00	985.00
1999.00	966.00
2000.00	921.00
2001.00	919.00
2002.00	892.00
2003.00	919.00
2004.00	914.00
2005.00	908.00
2006.00	902.00
2007.00	874.00
2008.00	870.00
2009.00	861.00
2010.00	848.00
2011.00	858.00
2012.00	878.00
2013.00	811.00
2014.00	819.00
2015.00	879.00
2016.00	822.00
2017.00	816.00
2018.00	804.00
2019.00	816.00
2020.00	833.00
2021.00	782.00
2022.00	796.00
2023.00	796.00
2024.00	796.00
2025.00	759.00
2026.00	780.00
2027.00	771.00
2028.00	759.00
2029.00	762.00
2030.00	787.00
2031.00	749.00
2032.00	778.00
2033.00	730.00
2034.00	716.00
2035.00	693.00
2036.00	727.00
2037.00	734.00
2038.00	736.00
2039.00	683.00
2040.00	687.00
2041.00	743.00
2042.00	673.00
2043.00	721.00
2044.00	704.00
2045.00	648.00
2046.00	655.00
2047.00	639.00
2048.00	 0.00
