Date:	2023-09-18		
Time:	21:06		
Sample name:	Pellets		
Position:	1081.600011	mm	
Sample surface:	5.897726	cm	
Tube anode:	Mo		
Tube voltage:	30	kV	
Tube current:	50	mA	
Comments	not in position		
Gain	5.810000		
peaking_time	0.300000	m-sec	
trigger_threshold	30.000000	V	
mca_bin_width	2.000000	no:	
number_mca_channels	2048.000000	no:	
gap_time	0.100000	m-sec	
trigger_peaking_time	0.050000	m-sec	
livetime	17.236545	seconds	
runtime	20.000168	seconds	
input_count_rate	114837.515158	cps	
output_count_rate	98969.266184	cps	
triggers	2215493.000000	seconds	
events_in_run	1969533.000000	seconds	
channel	content		
 1.00	 0.00
 2.00	 0.00
 3.00	 0.00
 4.00	 0.00
 5.00	 0.00
 6.00	 0.00
 7.00	 0.00
 8.00	 0.00
 9.00	 0.00
10.00	 0.00
11.00	 0.00
12.00	 0.00
13.00	 0.00
14.00	 0.00
15.00	 0.00
16.00	 0.00
17.00	 0.00
18.00	 0.00
19.00	 0.00
20.00	 0.00
21.00	 0.00
22.00	 0.00
23.00	 0.00
24.00	 0.00
25.00	 0.00
26.00	 0.00
27.00	 0.00
28.00	 0.00
29.00	 0.00
30.00	 0.00
31.00	 0.00
32.00	 1.00
33.00	 1.00
34.00	 4.00
35.00	 7.00
36.00	 4.00
37.00	17.00
38.00	11.00
39.00	26.00
40.00	48.00
41.00	50.00
42.00	63.00
43.00	92.00
44.00	95.00
45.00	112.00
46.00	149.00
47.00	175.00
48.00	176.00
49.00	213.00
50.00	224.00
51.00	260.00
52.00	251.00
53.00	262.00
54.00	294.00
55.00	292.00
56.00	290.00
57.00	307.00
58.00	323.00
59.00	310.00
60.00	341.00
61.00	316.00
62.00	332.00
63.00	364.00
64.00	328.00
65.00	346.00
66.00	364.00
67.00	355.00
68.00	377.00
69.00	341.00
70.00	402.00
71.00	375.00
72.00	394.00
73.00	364.00
74.00	344.00
75.00	353.00
76.00	349.00
77.00	369.00
78.00	390.00
79.00	334.00
80.00	400.00
81.00	359.00
82.00	391.00
83.00	359.00
84.00	401.00
85.00	372.00
86.00	338.00
87.00	322.00
88.00	351.00
89.00	298.00
90.00	358.00
91.00	305.00
92.00	324.00
93.00	331.00
94.00	317.00
95.00	323.00
96.00	307.00
97.00	323.00
98.00	327.00
99.00	302.00
100.00	274.00
101.00	290.00
102.00	271.00
103.00	275.00
104.00	276.00
105.00	298.00
106.00	278.00
107.00	285.00
108.00	248.00
109.00	277.00
110.00	259.00
111.00	281.00
112.00	264.00
113.00	270.00
114.00	259.00
115.00	275.00
116.00	252.00
117.00	296.00
118.00	259.00
119.00	235.00
120.00	270.00
121.00	260.00
122.00	245.00
123.00	244.00
124.00	232.00
125.00	242.00
126.00	203.00
127.00	211.00
128.00	204.00
129.00	197.00
130.00	203.00
131.00	235.00
132.00	204.00
133.00	213.00
134.00	185.00
135.00	215.00
136.00	253.00
137.00	296.00
138.00	327.00
139.00	441.00
140.00	589.00
141.00	729.00
142.00	848.00
143.00	979.00
144.00	1061.00
145.00	1002.00
146.00	1047.00
147.00	871.00
148.00	770.00
149.00	702.00
150.00	647.00
151.00	573.00
152.00	515.00
153.00	533.00
154.00	420.00
155.00	406.00
156.00	379.00
157.00	380.00
158.00	443.00
159.00	575.00
160.00	878.00
161.00	1525.00
162.00	2616.00
163.00	3941.00
164.00	5939.00
165.00	8346.00
166.00	11176.00
167.00	13511.00
168.00	14807.00
169.00	15598.00
170.00	14932.00
171.00	13535.00
172.00	11197.00
173.00	8949.00
174.00	6426.00
175.00	4618.00
176.00	3286.00
177.00	2250.00
178.00	1686.00
179.00	1308.00
180.00	992.00
181.00	795.00
182.00	598.00
183.00	517.00
184.00	438.00
185.00	373.00
186.00	370.00
187.00	354.00
188.00	354.00
189.00	369.00
190.00	309.00
191.00	330.00
192.00	344.00
193.00	294.00
194.00	312.00
195.00	301.00
196.00	261.00
197.00	250.00
198.00	243.00
199.00	228.00
200.00	196.00
201.00	222.00
202.00	187.00
203.00	175.00
204.00	181.00
205.00	173.00
206.00	206.00
207.00	176.00
208.00	164.00
209.00	193.00
210.00	175.00
211.00	160.00
212.00	171.00
213.00	147.00
214.00	174.00
215.00	178.00
216.00	183.00
217.00	219.00
218.00	189.00
219.00	226.00
220.00	222.00
221.00	267.00
222.00	285.00
223.00	276.00
224.00	255.00
225.00	269.00
226.00	229.00
227.00	206.00
228.00	218.00
229.00	216.00
230.00	201.00
231.00	161.00
232.00	185.00
233.00	151.00
234.00	179.00
235.00	159.00
236.00	160.00
237.00	168.00
238.00	165.00
239.00	171.00
240.00	159.00
241.00	159.00
242.00	152.00
243.00	161.00
244.00	149.00
245.00	178.00
246.00	133.00
247.00	166.00
248.00	165.00
249.00	144.00
250.00	155.00
251.00	172.00
252.00	170.00
253.00	191.00
254.00	181.00
255.00	176.00
256.00	187.00
257.00	182.00
258.00	197.00
259.00	189.00
260.00	192.00
261.00	231.00
262.00	222.00
263.00	228.00
264.00	238.00
265.00	235.00
266.00	279.00
267.00	266.00
268.00	260.00
269.00	279.00
270.00	257.00
271.00	262.00
272.00	255.00
273.00	220.00
274.00	193.00
275.00	250.00
276.00	271.00
277.00	296.00
278.00	367.00
279.00	481.00
280.00	631.00
281.00	921.00
282.00	1171.00
283.00	1418.00
284.00	1657.00
285.00	1980.00
286.00	2019.00
287.00	2068.00
288.00	1999.00
289.00	1779.00
290.00	1604.00
291.00	1328.00
292.00	1052.00
293.00	798.00
294.00	628.00
295.00	447.00
296.00	330.00
297.00	260.00
298.00	222.00
299.00	220.00
300.00	216.00
301.00	244.00
302.00	229.00
303.00	278.00
304.00	305.00
305.00	363.00
306.00	443.00
307.00	496.00
308.00	611.00
309.00	894.00
310.00	1117.00
311.00	1589.00
312.00	2434.00
313.00	3518.00
314.00	4847.00
315.00	6682.00
316.00	8770.00
317.00	11170.00
318.00	13423.00
319.00	15279.00
320.00	16454.00
321.00	17362.00
322.00	16965.00
323.00	15727.00
324.00	13843.00
325.00	11534.00
326.00	9424.00
327.00	7299.00
328.00	5310.00
329.00	3569.00
330.00	2518.00
331.00	1640.00
332.00	1056.00
333.00	640.00
334.00	509.00
335.00	417.00
336.00	424.00
337.00	403.00
338.00	498.00
339.00	642.00
340.00	856.00
341.00	1145.00
342.00	1377.00
343.00	1767.00
344.00	2076.00
345.00	2510.00
346.00	2929.00
347.00	3456.00
348.00	4050.00
349.00	4786.00
350.00	5524.00
351.00	6628.00
352.00	7779.00
353.00	9095.00
354.00	10558.00
355.00	11614.00
356.00	12604.00
357.00	12825.00
358.00	12650.00
359.00	12282.00
360.00	10952.00
361.00	9536.00
362.00	7886.00
363.00	6206.00
364.00	4687.00
365.00	3461.00
366.00	2405.00
367.00	1700.00
368.00	1066.00
369.00	772.00
370.00	510.00
371.00	379.00
372.00	310.00
373.00	302.00
374.00	276.00
375.00	320.00
376.00	303.00
377.00	368.00
378.00	458.00
379.00	541.00
380.00	703.00
381.00	778.00
382.00	987.00
383.00	1203.00
384.00	1418.00
385.00	1663.00
386.00	1860.00
387.00	1970.00
388.00	2078.00
389.00	2014.00
390.00	1994.00
391.00	1876.00
392.00	1726.00
393.00	1461.00
394.00	1253.00
395.00	1043.00
396.00	886.00
397.00	732.00
398.00	599.00
399.00	507.00
400.00	453.00
401.00	377.00
402.00	318.00
403.00	340.00
404.00	334.00
405.00	317.00
406.00	327.00
407.00	288.00
408.00	279.00
409.00	307.00
410.00	295.00
411.00	315.00
412.00	315.00
413.00	320.00
414.00	369.00
415.00	330.00
416.00	347.00
417.00	390.00
418.00	430.00
419.00	482.00
420.00	554.00
421.00	652.00
422.00	782.00
423.00	1051.00
424.00	1374.00
425.00	1978.00
426.00	2675.00
427.00	3650.00
428.00	4979.00
429.00	6380.00
430.00	8112.00
431.00	10329.00
432.00	12088.00
433.00	14011.00
434.00	15534.00
435.00	16510.00
436.00	17033.00
437.00	16649.00
438.00	16017.00
439.00	14702.00
440.00	12775.00
441.00	11016.00
442.00	9136.00
443.00	7579.00
444.00	6064.00
445.00	5007.00
446.00	4096.00
447.00	3445.00
448.00	3024.00
449.00	2735.00
450.00	2621.00
451.00	2535.00
452.00	2280.00
453.00	2064.00
454.00	1818.00
455.00	1718.00
456.00	1525.00
457.00	1433.00
458.00	1250.00
459.00	1246.00
460.00	1222.00
461.00	1372.00
462.00	1348.00
463.00	1516.00
464.00	1617.00
465.00	1870.00
466.00	2022.00
467.00	2142.00
468.00	2466.00
469.00	2655.00
470.00	2946.00
471.00	3199.00
472.00	3504.00
473.00	3752.00
474.00	4119.00
475.00	4350.00
476.00	4331.00
477.00	4400.00
478.00	4399.00
479.00	4253.00
480.00	3859.00
481.00	3561.00
482.00	3233.00
483.00	2729.00
484.00	2297.00
485.00	1934.00
486.00	1635.00
487.00	1419.00
488.00	1206.00
489.00	1050.00
490.00	972.00
491.00	907.00
492.00	910.00
493.00	876.00
494.00	934.00
495.00	990.00
496.00	979.00
497.00	1057.00
498.00	1035.00
499.00	1062.00
500.00	1171.00
501.00	1178.00
502.00	1211.00
503.00	1283.00
504.00	1258.00
505.00	1300.00
506.00	1387.00
507.00	1320.00
508.00	1374.00
509.00	1401.00
510.00	1469.00
511.00	1529.00
512.00	1549.00
513.00	1642.00
514.00	1682.00
515.00	1784.00
516.00	1845.00
517.00	1948.00
518.00	2078.00
519.00	2178.00
520.00	2284.00
521.00	2451.00
522.00	2512.00
523.00	2587.00
524.00	2585.00
525.00	2494.00
526.00	2459.00
527.00	2311.00
528.00	2188.00
529.00	2091.00
530.00	1993.00
531.00	2006.00
532.00	1902.00
533.00	1903.00
534.00	1846.00
535.00	1928.00
536.00	1767.00
537.00	1740.00
538.00	1841.00
539.00	1857.00
540.00	1896.00
541.00	1921.00
542.00	1898.00
543.00	1935.00
544.00	1963.00
545.00	1850.00
546.00	1879.00
547.00	1967.00
548.00	2012.00
549.00	1936.00
550.00	2001.00
551.00	2044.00
552.00	2079.00
553.00	2179.00
554.00	2292.00
555.00	2437.00
556.00	2876.00
557.00	3421.00
558.00	3968.00
559.00	4911.00
560.00	6042.00
561.00	7650.00
562.00	9233.00
563.00	11347.00
564.00	13695.00
565.00	15547.00
566.00	17792.00
567.00	19532.00
568.00	21045.00
569.00	22104.00
570.00	21997.00
571.00	21863.00
572.00	20912.00
573.00	18980.00
574.00	16914.00
575.00	14853.00
576.00	12656.00
577.00	10582.00
578.00	8519.00
579.00	6759.00
580.00	5493.00
581.00	4403.00
582.00	3676.00
583.00	3139.00
584.00	2642.00
585.00	2384.00
586.00	2381.00
587.00	2322.00
588.00	2283.00
589.00	2344.00
590.00	2347.00
591.00	2370.00
592.00	2685.00
593.00	2862.00
594.00	3047.00
595.00	3167.00
596.00	3400.00
597.00	3808.00
598.00	4406.00
599.00	5403.00
600.00	7013.00
601.00	9085.00
602.00	12577.00
603.00	17532.00
604.00	24762.00
605.00	35438.00
606.00	49338.00
607.00	68733.00
608.00	93639.00
609.00	124742.00
610.00	161276.00
611.00	202855.00
612.00	250600.00
613.00	298995.00
614.00	344715.00
615.00	387361.00
616.00	424155.00
617.00	448633.00
618.00	460301.00
619.00	459844.00
620.00	445086.00
621.00	417139.00
622.00	379789.00
623.00	334899.00
624.00	288289.00
625.00	240407.00
626.00	193761.00
627.00	152500.00
628.00	116802.00
629.00	87593.00
630.00	63614.00
631.00	46372.00
632.00	32416.00
633.00	22554.00
634.00	16062.00
635.00	11279.00
636.00	8228.00
637.00	6416.00
638.00	5247.00
639.00	4325.00
640.00	3963.00
641.00	3659.00
642.00	3516.00
643.00	3465.00
644.00	3417.00
645.00	3309.00
646.00	3354.00
647.00	3427.00
648.00	3305.00
649.00	3538.00
650.00	3531.00
651.00	3509.00
652.00	3731.00
653.00	3650.00
654.00	3763.00
655.00	3903.00
656.00	3924.00
657.00	4154.00
658.00	4464.00
659.00	4497.00
660.00	4754.00
661.00	4923.00
662.00	5457.00
663.00	5697.00
664.00	6355.00
665.00	7225.00
666.00	8374.00
667.00	9644.00
668.00	11580.00
669.00	13827.00
670.00	16938.00
671.00	21196.00
672.00	26059.00
673.00	31125.00
674.00	37534.00
675.00	43841.00
676.00	50961.00
677.00	57849.00
678.00	64128.00
679.00	68351.00
680.00	72055.00
681.00	74254.00
682.00	74307.00
683.00	71780.00
684.00	68050.00
685.00	62949.00
686.00	56797.00
687.00	50115.00
688.00	42892.00
689.00	35737.00
690.00	29227.00
691.00	23663.00
692.00	18751.00
693.00	14517.00
694.00	11475.00
695.00	8893.00
696.00	7015.00
697.00	5568.00
698.00	4898.00
699.00	4168.00
700.00	3768.00
701.00	3626.00
702.00	3354.00
703.00	3316.00
704.00	3379.00
705.00	3225.00
706.00	3346.00
707.00	3391.00
708.00	3642.00
709.00	3674.00
710.00	3711.00
711.00	3882.00
712.00	4087.00
713.00	4300.00
714.00	4525.00
715.00	4550.00
716.00	4726.00
717.00	4929.00
718.00	5205.00
719.00	5207.00
720.00	5311.00
721.00	5355.00
722.00	5260.00
723.00	5202.00
724.00	5121.00
725.00	5084.00
726.00	4806.00
727.00	4735.00
728.00	4473.00
729.00	4286.00
730.00	3950.00
731.00	3882.00
732.00	3857.00
733.00	3631.00
734.00	3540.00
735.00	3467.00
736.00	3332.00
737.00	3373.00
738.00	3368.00
739.00	3280.00
740.00	3328.00
741.00	3224.00
742.00	3292.00
743.00	3237.00
744.00	3183.00
745.00	3131.00
746.00	3067.00
747.00	3177.00
748.00	3233.00
749.00	3224.00
750.00	3237.00
751.00	3053.00
752.00	3129.00
753.00	3206.00
754.00	3258.00
755.00	3230.00
756.00	3188.00
757.00	3336.00
758.00	3253.00
759.00	3200.00
760.00	3342.00
761.00	3399.00
762.00	3513.00
763.00	3678.00
764.00	3699.00
765.00	3828.00
766.00	3836.00
767.00	4124.00
768.00	4101.00
769.00	4312.00
770.00	4455.00
771.00	4604.00
772.00	4797.00
773.00	4918.00
774.00	4984.00
775.00	5137.00
776.00	5306.00
777.00	5452.00
778.00	5411.00
779.00	5531.00
780.00	5448.00
781.00	5544.00
782.00	5426.00
783.00	5419.00
784.00	5399.00
785.00	5222.00
786.00	5420.00
787.00	5252.00
788.00	5348.00
789.00	5486.00
790.00	5437.00
791.00	5504.00
792.00	5489.00
793.00	5716.00
794.00	5455.00
795.00	5603.00
796.00	5641.00
797.00	5585.00
798.00	5831.00
799.00	5624.00
800.00	5753.00
801.00	5849.00
802.00	5789.00
803.00	5785.00
804.00	5872.00
805.00	5713.00
806.00	5734.00
807.00	5746.00
808.00	5785.00
809.00	5870.00
810.00	5822.00
811.00	5789.00
812.00	5773.00
813.00	5681.00
814.00	5841.00
815.00	5659.00
816.00	5710.00
817.00	5757.00
818.00	5845.00
819.00	5773.00
820.00	6053.00
821.00	6308.00
822.00	6574.00
823.00	6974.00
824.00	7432.00
825.00	7952.00
826.00	8523.00
827.00	8979.00
828.00	9489.00
829.00	9962.00
830.00	10388.00
831.00	10755.00
832.00	11153.00
833.00	11078.00
834.00	11097.00
835.00	10927.00
836.00	10676.00
837.00	10390.00
838.00	9851.00
839.00	9361.00
840.00	8789.00
841.00	8237.00
842.00	7812.00
843.00	7324.00
844.00	6717.00
845.00	6546.00
846.00	6261.00
847.00	6188.00
848.00	5911.00
849.00	5714.00
850.00	5650.00
851.00	5688.00
852.00	5554.00
853.00	5636.00
854.00	5508.00
855.00	5590.00
856.00	5609.00
857.00	5795.00
858.00	5807.00
859.00	5843.00
860.00	5838.00
861.00	5698.00
862.00	5774.00
863.00	5691.00
864.00	5889.00
865.00	5809.00
866.00	5851.00
867.00	5720.00
868.00	5818.00
869.00	5764.00
870.00	5826.00
871.00	5952.00
872.00	5826.00
873.00	5981.00
874.00	5863.00
875.00	5951.00
876.00	5952.00
877.00	6156.00
878.00	6099.00
879.00	6135.00
880.00	6236.00
881.00	6261.00
882.00	6251.00
883.00	6530.00
884.00	6567.00
885.00	6657.00
886.00	6623.00
887.00	6584.00
888.00	6867.00
889.00	6957.00
890.00	6964.00
891.00	6809.00
892.00	7122.00
893.00	7056.00
894.00	6927.00
895.00	6934.00
896.00	6909.00
897.00	7026.00
898.00	7080.00
899.00	7040.00
900.00	6790.00
901.00	6940.00
902.00	6926.00
903.00	6906.00
904.00	6872.00
905.00	6871.00
906.00	6847.00
907.00	6870.00
908.00	7082.00
909.00	6875.00
910.00	7053.00
911.00	7096.00
912.00	7137.00
913.00	7267.00
914.00	7369.00
915.00	7279.00
916.00	7466.00
917.00	7545.00
918.00	7494.00
919.00	7806.00
920.00	7917.00
921.00	7872.00
922.00	7809.00
923.00	8076.00
924.00	8163.00
925.00	7997.00
926.00	8216.00
927.00	7956.00
928.00	8102.00
929.00	7979.00
930.00	7795.00
931.00	7931.00
932.00	7665.00
933.00	7712.00
934.00	7500.00
935.00	7629.00
936.00	7438.00
937.00	7329.00
938.00	7164.00
939.00	7215.00
940.00	7342.00
941.00	7053.00
942.00	7130.00
943.00	7170.00
944.00	7170.00
945.00	7046.00
946.00	7048.00
947.00	7137.00
948.00	6938.00
949.00	7263.00
950.00	7115.00
951.00	7149.00
952.00	6910.00
953.00	7093.00
954.00	6963.00
955.00	7104.00
956.00	7023.00
957.00	6975.00
958.00	7020.00
959.00	7057.00
960.00	7092.00
961.00	7147.00
962.00	7125.00
963.00	7162.00
964.00	7081.00
965.00	7185.00
966.00	7152.00
967.00	7113.00
968.00	7011.00
969.00	7293.00
970.00	7304.00
971.00	7237.00
972.00	7203.00
973.00	7304.00
974.00	7156.00
975.00	7262.00
976.00	7242.00
977.00	7148.00
978.00	7170.00
979.00	7182.00
980.00	7209.00
981.00	7197.00
982.00	7187.00
983.00	7235.00
984.00	7236.00
985.00	7343.00
986.00	7363.00
987.00	7380.00
988.00	7187.00
989.00	7296.00
990.00	7278.00
991.00	7272.00
992.00	7155.00
993.00	7324.00
994.00	7524.00
995.00	7223.00
996.00	7358.00
997.00	7324.00
998.00	7457.00
999.00	7293.00
1000.00	7267.00
1001.00	7484.00
1002.00	7402.00
1003.00	7505.00
1004.00	7396.00
1005.00	7551.00
1006.00	7601.00
1007.00	7628.00
1008.00	7790.00
1009.00	7646.00
1010.00	7762.00
1011.00	7741.00
1012.00	8062.00
1013.00	8131.00
1014.00	8049.00
1015.00	8127.00
1016.00	8169.00
1017.00	8042.00
1018.00	7968.00
1019.00	8142.00
1020.00	8030.00
1021.00	7988.00
1022.00	8026.00
1023.00	7681.00
1024.00	7614.00
1025.00	7698.00
1026.00	7459.00
1027.00	7607.00
1028.00	7438.00
1029.00	7430.00
1030.00	7335.00
1031.00	7435.00
1032.00	7258.00
1033.00	7224.00
1034.00	7295.00
1035.00	7194.00
1036.00	7393.00
1037.00	7152.00
1038.00	7197.00
1039.00	7289.00
1040.00	7314.00
1041.00	7141.00
1042.00	7169.00
1043.00	7314.00
1044.00	7314.00
1045.00	7370.00
1046.00	7282.00
1047.00	7380.00
1048.00	7299.00
1049.00	7543.00
1050.00	7488.00
1051.00	7502.00
1052.00	7482.00
1053.00	7529.00
1054.00	7544.00
1055.00	7456.00
1056.00	7574.00
1057.00	7626.00
1058.00	7607.00
1059.00	7412.00
1060.00	7454.00
1061.00	7560.00
1062.00	7466.00
1063.00	7635.00
1064.00	7670.00
1065.00	7544.00
1066.00	7618.00
1067.00	7578.00
1068.00	7525.00
1069.00	7691.00
1070.00	7715.00
1071.00	7557.00
1072.00	7542.00
1073.00	7648.00
1074.00	7531.00
1075.00	7527.00
1076.00	7755.00
1077.00	7707.00
1078.00	7877.00
1079.00	7728.00
1080.00	7581.00
1081.00	7847.00
1082.00	7888.00
1083.00	7741.00
1084.00	7955.00
1085.00	7854.00
1086.00	8041.00
1087.00	7878.00
1088.00	7889.00
1089.00	7920.00
1090.00	7860.00
1091.00	8039.00
1092.00	7876.00
1093.00	8004.00
1094.00	7938.00
1095.00	7839.00
1096.00	8051.00
1097.00	7818.00
1098.00	7973.00
1099.00	7930.00
1100.00	7884.00
1101.00	7941.00
1102.00	7896.00
1103.00	8106.00
1104.00	7903.00
1105.00	7961.00
1106.00	7865.00
1107.00	7967.00
1108.00	7870.00
1109.00	7884.00
1110.00	7930.00
1111.00	7925.00
1112.00	7881.00
1113.00	7998.00
1114.00	7954.00
1115.00	7905.00
1116.00	7887.00
1117.00	8023.00
1118.00	7867.00
1119.00	7935.00
1120.00	7945.00
1121.00	7960.00
1122.00	8050.00
1123.00	7955.00
1124.00	7974.00
1125.00	7800.00
1126.00	7977.00
1127.00	7911.00
1128.00	7874.00
1129.00	7995.00
1130.00	7928.00
1131.00	7887.00
1132.00	7973.00
1133.00	7812.00
1134.00	7958.00
1135.00	8238.00
1136.00	7972.00
1137.00	8069.00
1138.00	8214.00
1139.00	7907.00
1140.00	8051.00
1141.00	8113.00
1142.00	8093.00
1143.00	8157.00
1144.00	8030.00
1145.00	8324.00
1146.00	8062.00
1147.00	8143.00
1148.00	8263.00
1149.00	8267.00
1150.00	8396.00
1151.00	8248.00
1152.00	7991.00
1153.00	8114.00
1154.00	7870.00
1155.00	8012.00
1156.00	8091.00
1157.00	7981.00
1158.00	7772.00
1159.00	7715.00
1160.00	7997.00
1161.00	7702.00
1162.00	7966.00
1163.00	7626.00
1164.00	7698.00
1165.00	7745.00
1166.00	7703.00
1167.00	7756.00
1168.00	7858.00
1169.00	7697.00
1170.00	7740.00
1171.00	7775.00
1172.00	7682.00
1173.00	7906.00
1174.00	7815.00
1175.00	7784.00
1176.00	7776.00
1177.00	7836.00
1178.00	7807.00
1179.00	7987.00
1180.00	7950.00
1181.00	7859.00
1182.00	7751.00
1183.00	8066.00
1184.00	7868.00
1185.00	7853.00
1186.00	7873.00
1187.00	7887.00
1188.00	7908.00
1189.00	7939.00
1190.00	7932.00
1191.00	7986.00
1192.00	7928.00
1193.00	7793.00
1194.00	7791.00
1195.00	7956.00
1196.00	7938.00
1197.00	8002.00
1198.00	7951.00
1199.00	7921.00
1200.00	7819.00
1201.00	8097.00
1202.00	7886.00
1203.00	8200.00
1204.00	8011.00
1205.00	8139.00
1206.00	8117.00
1207.00	8168.00
1208.00	8290.00
1209.00	8135.00
1210.00	8191.00
1211.00	8288.00
1212.00	8323.00
1213.00	8353.00
1214.00	8249.00
1215.00	8336.00
1216.00	8531.00
1217.00	8380.00
1218.00	8608.00
1219.00	8635.00
1220.00	8579.00
1221.00	8570.00
1222.00	8555.00
1223.00	8563.00
1224.00	8751.00
1225.00	8640.00
1226.00	8811.00
1227.00	8824.00
1228.00	8976.00
1229.00	8845.00
1230.00	8838.00
1231.00	8896.00
1232.00	8960.00
1233.00	8811.00
1234.00	8685.00
1235.00	8856.00
1236.00	8822.00
1237.00	8774.00
1238.00	8834.00
1239.00	8765.00
1240.00	8641.00
1241.00	8622.00
1242.00	8495.00
1243.00	8491.00
1244.00	8392.00
1245.00	8115.00
1246.00	8260.00
1247.00	8313.00
1248.00	8208.00
1249.00	8080.00
1250.00	8140.00
1251.00	7968.00
1252.00	8080.00
1253.00	8030.00
1254.00	8155.00
1255.00	7953.00
1256.00	8196.00
1257.00	8201.00
1258.00	7923.00
1259.00	8060.00
1260.00	8115.00
1261.00	7973.00
1262.00	8055.00
1263.00	8011.00
1264.00	7954.00
1265.00	8130.00
1266.00	7878.00
1267.00	7909.00
1268.00	8114.00
1269.00	8044.00
1270.00	8051.00
1271.00	8116.00
1272.00	8157.00
1273.00	8301.00
1274.00	8241.00
1275.00	8370.00
1276.00	8322.00
1277.00	8445.00
1278.00	8508.00
1279.00	8876.00
1280.00	9114.00
1281.00	9052.00
1282.00	9130.00
1283.00	9237.00
1284.00	9260.00
1285.00	9427.00
1286.00	9649.00
1287.00	9600.00
1288.00	9643.00
1289.00	9768.00
1290.00	9881.00
1291.00	9788.00
1292.00	9736.00
1293.00	9824.00
1294.00	9740.00
1295.00	9437.00
1296.00	9547.00
1297.00	9423.00
1298.00	9164.00
1299.00	9322.00
1300.00	8922.00
1301.00	8844.00
1302.00	8647.00
1303.00	8482.00
1304.00	8377.00
1305.00	8268.00
1306.00	8165.00
1307.00	8040.00
1308.00	8201.00
1309.00	8085.00
1310.00	8040.00
1311.00	7957.00
1312.00	7824.00
1313.00	8019.00
1314.00	7892.00
1315.00	7706.00
1316.00	7785.00
1317.00	7836.00
1318.00	7806.00
1319.00	7901.00
1320.00	7814.00
1321.00	7873.00
1322.00	7676.00
1323.00	7738.00
1324.00	7618.00
1325.00	7811.00
1326.00	7730.00
1327.00	7712.00
1328.00	7818.00
1329.00	7646.00
1330.00	7692.00
1331.00	7639.00
1332.00	7717.00
1333.00	7733.00
1334.00	7875.00
1335.00	7786.00
1336.00	7787.00
1337.00	7618.00
1338.00	7805.00
1339.00	7707.00
1340.00	7615.00
1341.00	7615.00
1342.00	7755.00
1343.00	7750.00
1344.00	7725.00
1345.00	7771.00
1346.00	7781.00
1347.00	7754.00
1348.00	8068.00
1349.00	7896.00
1350.00	7964.00
1351.00	7994.00
1352.00	7953.00
1353.00	8007.00
1354.00	8400.00
1355.00	8350.00
1356.00	8345.00
1357.00	8434.00
1358.00	8536.00
1359.00	8553.00
1360.00	8776.00
1361.00	8813.00
1362.00	8906.00
1363.00	8880.00
1364.00	8716.00
1365.00	8709.00
1366.00	8829.00
1367.00	8663.00
1368.00	8583.00
1369.00	8540.00
1370.00	8422.00
1371.00	8411.00
1372.00	8260.00
1373.00	8136.00
1374.00	8028.00
1375.00	7644.00
1376.00	7682.00
1377.00	7619.00
1378.00	7605.00
1379.00	7616.00
1380.00	7363.00
1381.00	7254.00
1382.00	7225.00
1383.00	7165.00
1384.00	7158.00
1385.00	7111.00
1386.00	7166.00
1387.00	7120.00
1388.00	6972.00
1389.00	7107.00
1390.00	6997.00
1391.00	7124.00
1392.00	7007.00
1393.00	6977.00
1394.00	7008.00
1395.00	6870.00
1396.00	6941.00
1397.00	6989.00
1398.00	6979.00
1399.00	6845.00
1400.00	6786.00
1401.00	6947.00
1402.00	6806.00
1403.00	6878.00
1404.00	6878.00
1405.00	6873.00
1406.00	6885.00
1407.00	6807.00
1408.00	6789.00
1409.00	6764.00
1410.00	6772.00
1411.00	6829.00
1412.00	6895.00
1413.00	6906.00
1414.00	6733.00
1415.00	6692.00
1416.00	6879.00
1417.00	6861.00
1418.00	6834.00
1419.00	6689.00
1420.00	6778.00
1421.00	6912.00
1422.00	6657.00
1423.00	6908.00
1424.00	6752.00
1425.00	6885.00
1426.00	6897.00
1427.00	6833.00
1428.00	7008.00
1429.00	6821.00
1430.00	6940.00
1431.00	7140.00
1432.00	7020.00
1433.00	7087.00
1434.00	7121.00
1435.00	7064.00
1436.00	7110.00
1437.00	7298.00
1438.00	7206.00
1439.00	7257.00
1440.00	7064.00
1441.00	7265.00
1442.00	7380.00
1443.00	7349.00
1444.00	7406.00
1445.00	7315.00
1446.00	7131.00
1447.00	7127.00
1448.00	7116.00
1449.00	6897.00
1450.00	7121.00
1451.00	7054.00
1452.00	6859.00
1453.00	6762.00
1454.00	6969.00
1455.00	6801.00
1456.00	6670.00
1457.00	6673.00
1458.00	6656.00
1459.00	6725.00
1460.00	6510.00
1461.00	6704.00
1462.00	6573.00
1463.00	6569.00
1464.00	6439.00
1465.00	6549.00
1466.00	6508.00
1467.00	6593.00
1468.00	6674.00
1469.00	6376.00
1470.00	6488.00
1471.00	6504.00
1472.00	6534.00
1473.00	6397.00
1474.00	6466.00
1475.00	6574.00
1476.00	6493.00
1477.00	6524.00
1478.00	6498.00
1479.00	6452.00
1480.00	6415.00
1481.00	6447.00
1482.00	6491.00
1483.00	6376.00
1484.00	6440.00
1485.00	6318.00
1486.00	6420.00
1487.00	6533.00
1488.00	6427.00
1489.00	6458.00
1490.00	6573.00
1491.00	6343.00
1492.00	6380.00
1493.00	6396.00
1494.00	6498.00
1495.00	6403.00
1496.00	6503.00
1497.00	6412.00
1498.00	6542.00
1499.00	6585.00
1500.00	6655.00
1501.00	6685.00
1502.00	6731.00
1503.00	6779.00
1504.00	6777.00
1505.00	7012.00
1506.00	7007.00
1507.00	6947.00
1508.00	7039.00
1509.00	7264.00
1510.00	7347.00
1511.00	7389.00
1512.00	7395.00
1513.00	7367.00
1514.00	7579.00
1515.00	7780.00
1516.00	7734.00
1517.00	7747.00
1518.00	7786.00
1519.00	7785.00
1520.00	7893.00
1521.00	7979.00
1522.00	8005.00
1523.00	7667.00
1524.00	7850.00
1525.00	7702.00
1526.00	7627.00
1527.00	7682.00
1528.00	7620.00
1529.00	7308.00
1530.00	7355.00
1531.00	7309.00
1532.00	7167.00
1533.00	7102.00
1534.00	7237.00
1535.00	7075.00
1536.00	7184.00
1537.00	7198.00
1538.00	7114.00
1539.00	6934.00
1540.00	7053.00
1541.00	7125.00
1542.00	7017.00
1543.00	7059.00
1544.00	7076.00
1545.00	7213.00
1546.00	7160.00
1547.00	7345.00
1548.00	7297.00
1549.00	7357.00
1550.00	7442.00
1551.00	7485.00
1552.00	7601.00
1553.00	7513.00
1554.00	7807.00
1555.00	7935.00
1556.00	7889.00
1557.00	8041.00
1558.00	8152.00
1559.00	8322.00
1560.00	8404.00
1561.00	8683.00
1562.00	8694.00
1563.00	8712.00
1564.00	8878.00
1565.00	8888.00
1566.00	9239.00
1567.00	9170.00
1568.00	9450.00
1569.00	9563.00
1570.00	9809.00
1571.00	9861.00
1572.00	9881.00
1573.00	10114.00
1574.00	10223.00
1575.00	10421.00
1576.00	10558.00
1577.00	10655.00
1578.00	10710.00
1579.00	10954.00
1580.00	10999.00
1581.00	11022.00
1582.00	11124.00
1583.00	11456.00
1584.00	11212.00
1585.00	11435.00
1586.00	11373.00
1587.00	11241.00
1588.00	11378.00
1589.00	11449.00
1590.00	11335.00
1591.00	11490.00
1592.00	11318.00
1593.00	11383.00
1594.00	11233.00
1595.00	11178.00
1596.00	11022.00
1597.00	11055.00
1598.00	10864.00
1599.00	10803.00
1600.00	10597.00
1601.00	10542.00
1602.00	10415.00
1603.00	10215.00
1604.00	10040.00
1605.00	10016.00
1606.00	9751.00
1607.00	9679.00
1608.00	9670.00
1609.00	9419.00
1610.00	9414.00
1611.00	9125.00
1612.00	9138.00
1613.00	8694.00
1614.00	8703.00
1615.00	8415.00
1616.00	8352.00
1617.00	8058.00
1618.00	8066.00
1619.00	7854.00
1620.00	7725.00
1621.00	7694.00
1622.00	7479.00
1623.00	7359.00
1624.00	7069.00
1625.00	7198.00
1626.00	7097.00
1627.00	6893.00
1628.00	6769.00
1629.00	6563.00
1630.00	6545.00
1631.00	6549.00
1632.00	6394.00
1633.00	6249.00
1634.00	6169.00
1635.00	6002.00
1636.00	6023.00
1637.00	5913.00
1638.00	5976.00
1639.00	5752.00
1640.00	5845.00
1641.00	5693.00
1642.00	5718.00
1643.00	5768.00
1644.00	5498.00
1645.00	5533.00
1646.00	5377.00
1647.00	5481.00
1648.00	5461.00
1649.00	5408.00
1650.00	5327.00
1651.00	5220.00
1652.00	5292.00
1653.00	5502.00
1654.00	5279.00
1655.00	5336.00
1656.00	5229.00
1657.00	5478.00
1658.00	5412.00
1659.00	5583.00
1660.00	5577.00
1661.00	5605.00
1662.00	5879.00
1663.00	5946.00
1664.00	5978.00
1665.00	6374.00
1666.00	6346.00
1667.00	6754.00
1668.00	6890.00
1669.00	7135.00
1670.00	7313.00
1671.00	7443.00
1672.00	7972.00
1673.00	8080.00
1674.00	8367.00
1675.00	8721.00
1676.00	8789.00
1677.00	8992.00
1678.00	9097.00
1679.00	9217.00
1680.00	9359.00
1681.00	9433.00
1682.00	9580.00
1683.00	9538.00
1684.00	9542.00
1685.00	9315.00
1686.00	9201.00
1687.00	8852.00
1688.00	8814.00
1689.00	8352.00
1690.00	8265.00
1691.00	8019.00
1692.00	7627.00
1693.00	7536.00
1694.00	7060.00
1695.00	6769.00
1696.00	6399.00
1697.00	6204.00
1698.00	5857.00
1699.00	5471.00
1700.00	5551.00
1701.00	5196.00
1702.00	5025.00
1703.00	4868.00
1704.00	4793.00
1705.00	4668.00
1706.00	4578.00
1707.00	4547.00
1708.00	4463.00
1709.00	4428.00
1710.00	4318.00
1711.00	4269.00
1712.00	4223.00
1713.00	4157.00
1714.00	4155.00
1715.00	4182.00
1716.00	4204.00
1717.00	4175.00
1718.00	4111.00
1719.00	4068.00
1720.00	4009.00
1721.00	4055.00
1722.00	3980.00
1723.00	4129.00
1724.00	4161.00
1725.00	4178.00
1726.00	3918.00
1727.00	4021.00
1728.00	3957.00
1729.00	4074.00
1730.00	4026.00
1731.00	3925.00
1732.00	4079.00
1733.00	4076.00
1734.00	4117.00
1735.00	4077.00
1736.00	4130.00
1737.00	3972.00
1738.00	4135.00
1739.00	4100.00
1740.00	4179.00
1741.00	4067.00
1742.00	4067.00
1743.00	4084.00
1744.00	4097.00
1745.00	4155.00
1746.00	4084.00
1747.00	4126.00
1748.00	4184.00
1749.00	4136.00
1750.00	4107.00
1751.00	4152.00
1752.00	4070.00
1753.00	4168.00
1754.00	4170.00
1755.00	4156.00
1756.00	4307.00
1757.00	4210.00
1758.00	4346.00
1759.00	4156.00
1760.00	4165.00
1761.00	4250.00
1762.00	4128.00
1763.00	4189.00
1764.00	4267.00
1765.00	4173.00
1766.00	4369.00
1767.00	4304.00
1768.00	4132.00
1769.00	4290.00
1770.00	4296.00
1771.00	4123.00
1772.00	4233.00
1773.00	4190.00
1774.00	4216.00
1775.00	4243.00
1776.00	4307.00
1777.00	4263.00
1778.00	4197.00
1779.00	4047.00
1780.00	4129.00
1781.00	4129.00
1782.00	4058.00
1783.00	4129.00
1784.00	3874.00
1785.00	3882.00
1786.00	3906.00
1787.00	3929.00
1788.00	3944.00
1789.00	3855.00
1790.00	3814.00
1791.00	3814.00
1792.00	3691.00
1793.00	3759.00
1794.00	3641.00
1795.00	3733.00
1796.00	3660.00
1797.00	3617.00
1798.00	3555.00
1799.00	3572.00
1800.00	3350.00
1801.00	3404.00
1802.00	3361.00
1803.00	3379.00
1804.00	3283.00
1805.00	3276.00
1806.00	3178.00
1807.00	3206.00
1808.00	3112.00
1809.00	3220.00
1810.00	3129.00
1811.00	3111.00
1812.00	3091.00
1813.00	3033.00
1814.00	2946.00
1815.00	3025.00
1816.00	2906.00
1817.00	2922.00
1818.00	2914.00
1819.00	2848.00
1820.00	2860.00
1821.00	2690.00
1822.00	2742.00
1823.00	2721.00
1824.00	2761.00
1825.00	2662.00
1826.00	2660.00
1827.00	2654.00
1828.00	2593.00
1829.00	2611.00
1830.00	2543.00
1831.00	2619.00
1832.00	2584.00
1833.00	2532.00
1834.00	2457.00
1835.00	2522.00
1836.00	2507.00
1837.00	2423.00
1838.00	2407.00
1839.00	2435.00
1840.00	2347.00
1841.00	2380.00
1842.00	2317.00
1843.00	2347.00
1844.00	2250.00
1845.00	2296.00
1846.00	2317.00
1847.00	2238.00
1848.00	2262.00
1849.00	2293.00
1850.00	2210.00
1851.00	2137.00
1852.00	2241.00
1853.00	2258.00
1854.00	2238.00
1855.00	2171.00
1856.00	2112.00
1857.00	2187.00
1858.00	2150.00
1859.00	2139.00
1860.00	2150.00
1861.00	2071.00
1862.00	2159.00
1863.00	2210.00
1864.00	2068.00
1865.00	2079.00
1866.00	2099.00
1867.00	2014.00
1868.00	2003.00
1869.00	2060.00
1870.00	2113.00
1871.00	2075.00
1872.00	2101.00
1873.00	2183.00
1874.00	2163.00
1875.00	2193.00
1876.00	2112.00
1877.00	2182.00
1878.00	2202.00
1879.00	2228.00
1880.00	2256.00
1881.00	2316.00
1882.00	2442.00
1883.00	2382.00
1884.00	2393.00
1885.00	2461.00
1886.00	2467.00
1887.00	2389.00
1888.00	2455.00
1889.00	2466.00
1890.00	2448.00
1891.00	2514.00
1892.00	2391.00
1893.00	2446.00
1894.00	2449.00
1895.00	2324.00
1896.00	2250.00
1897.00	2330.00
1898.00	2178.00
1899.00	2128.00
1900.00	2063.00
1901.00	2005.00
1902.00	2029.00
1903.00	2041.00
1904.00	1976.00
1905.00	1880.00
1906.00	1861.00
1907.00	1847.00
1908.00	1766.00
1909.00	1846.00
1910.00	1816.00
1911.00	1694.00
1912.00	1693.00
1913.00	1657.00
1914.00	1697.00
1915.00	1659.00
1916.00	1686.00
1917.00	1588.00
1918.00	1697.00
1919.00	1620.00
1920.00	1590.00
1921.00	1629.00
1922.00	1593.00
1923.00	1667.00
1924.00	1584.00
1925.00	1621.00
1926.00	1625.00
1927.00	1619.00
1928.00	1558.00
1929.00	1540.00
1930.00	1540.00
1931.00	1580.00
1932.00	1514.00
1933.00	1476.00
1934.00	1497.00
1935.00	1486.00
1936.00	1473.00
1937.00	1477.00
1938.00	1400.00
1939.00	1413.00
1940.00	1403.00
1941.00	1408.00
1942.00	1371.00
1943.00	1378.00
1944.00	1311.00
1945.00	1370.00
1946.00	1393.00
1947.00	1339.00
1948.00	1296.00
1949.00	1342.00
1950.00	1269.00
1951.00	1385.00
1952.00	1239.00
1953.00	1295.00
1954.00	1255.00
1955.00	1230.00
1956.00	1269.00
1957.00	1249.00
1958.00	1269.00
1959.00	1303.00
1960.00	1210.00
1961.00	1299.00
1962.00	1205.00
1963.00	1258.00
1964.00	1217.00
1965.00	1232.00
1966.00	1201.00
1967.00	1156.00
1968.00	1250.00
1969.00	1235.00
1970.00	1232.00
1971.00	1190.00
1972.00	1260.00
1973.00	1213.00
1974.00	1194.00
1975.00	1149.00
1976.00	1181.00
1977.00	1140.00
1978.00	1166.00
1979.00	1160.00
1980.00	1148.00
1981.00	1154.00
1982.00	1077.00
1983.00	1128.00
1984.00	1112.00
1985.00	1092.00
1986.00	1107.00
1987.00	1153.00
1988.00	1143.00
1989.00	1141.00
1990.00	1036.00
1991.00	1111.00
1992.00	1126.00
1993.00	1076.00
1994.00	1009.00
1995.00	1083.00
1996.00	1091.00
1997.00	1087.00
1998.00	994.00
1999.00	1020.00
2000.00	1032.00
2001.00	1004.00
2002.00	1072.00
2003.00	1072.00
2004.00	1031.00
2005.00	970.00
2006.00	971.00
2007.00	988.00
2008.00	922.00
2009.00	950.00
2010.00	995.00
2011.00	913.00
2012.00	970.00
2013.00	911.00
2014.00	912.00
2015.00	980.00
2016.00	937.00
2017.00	897.00
2018.00	974.00
2019.00	937.00
2020.00	915.00
2021.00	900.00
2022.00	931.00
2023.00	872.00
2024.00	899.00
2025.00	857.00
2026.00	902.00
2027.00	897.00
2028.00	818.00
2029.00	886.00
2030.00	826.00
2031.00	811.00
2032.00	863.00
2033.00	799.00
2034.00	796.00
2035.00	777.00
2036.00	850.00
2037.00	812.00
2038.00	792.00
2039.00	827.00
2040.00	777.00
2041.00	815.00
2042.00	786.00
2043.00	793.00
2044.00	773.00
2045.00	778.00
2046.00	709.00
2047.00	748.00
2048.00	 0.00
