Date:	2023-09-18		
Time:	20:01		
Sample name:	Pellets		
Position:	399.600011	mm	
Sample surface:	6.003068	cm	
Tube anode:	Mo		
Tube voltage:	30	kV	
Tube current:	50	mA	
Comments	not in position		
Gain	5.810000		
peaking_time	0.300000	m-sec	
trigger_threshold	30.000000	V	
mca_bin_width	2.000000	no:	
number_mca_channels	2048.000000	no:	
gap_time	0.100000	m-sec	
trigger_peaking_time	0.050000	m-sec	
livetime	17.448621	seconds	
runtime	20.000327	seconds	
input_count_rate	103724.928100	cps	
output_count_rate	90491.368204	cps	
triggers	2009089.000000	seconds	
events_in_run	1801360.000000	seconds	
channel	content		
 1.00	 0.00
 2.00	 0.00
 3.00	 0.00
 4.00	 0.00
 5.00	 0.00
 6.00	 0.00
 7.00	 0.00
 8.00	 0.00
 9.00	 0.00
10.00	 0.00
11.00	 0.00
12.00	 0.00
13.00	 0.00
14.00	 0.00
15.00	 0.00
16.00	 0.00
17.00	 0.00
18.00	 0.00
19.00	 0.00
20.00	 0.00
21.00	 0.00
22.00	 0.00
23.00	 0.00
24.00	 0.00
25.00	 0.00
26.00	 0.00
27.00	 0.00
28.00	 0.00
29.00	 0.00
30.00	 0.00
31.00	 1.00
32.00	 2.00
33.00	 1.00
34.00	 4.00
35.00	 8.00
36.00	 6.00
37.00	16.00
38.00	19.00
39.00	19.00
40.00	40.00
41.00	49.00
42.00	63.00
43.00	80.00
44.00	99.00
45.00	100.00
46.00	142.00
47.00	152.00
48.00	182.00
49.00	198.00
50.00	201.00
51.00	225.00
52.00	225.00
53.00	251.00
54.00	227.00
55.00	276.00
56.00	255.00
57.00	288.00
58.00	268.00
59.00	324.00
60.00	326.00
61.00	331.00
62.00	319.00
63.00	320.00
64.00	312.00
65.00	352.00
66.00	329.00
67.00	317.00
68.00	352.00
69.00	326.00
70.00	319.00
71.00	300.00
72.00	353.00
73.00	359.00
74.00	328.00
75.00	324.00
76.00	303.00
77.00	290.00
78.00	349.00
79.00	334.00
80.00	342.00
81.00	289.00
82.00	305.00
83.00	343.00
84.00	359.00
85.00	327.00
86.00	352.00
87.00	306.00
88.00	317.00
89.00	367.00
90.00	305.00
91.00	313.00
92.00	311.00
93.00	291.00
94.00	270.00
95.00	269.00
96.00	288.00
97.00	257.00
98.00	283.00
99.00	295.00
100.00	268.00
101.00	288.00
102.00	259.00
103.00	278.00
104.00	259.00
105.00	277.00
106.00	259.00
107.00	252.00
108.00	238.00
109.00	251.00
110.00	260.00
111.00	275.00
112.00	247.00
113.00	243.00
114.00	268.00
115.00	248.00
116.00	232.00
117.00	217.00
118.00	251.00
119.00	257.00
120.00	268.00
121.00	252.00
122.00	240.00
123.00	247.00
124.00	208.00
125.00	207.00
126.00	188.00
127.00	200.00
128.00	213.00
129.00	187.00
130.00	180.00
131.00	172.00
132.00	166.00
133.00	181.00
134.00	204.00
135.00	186.00
136.00	199.00
137.00	247.00
138.00	345.00
139.00	386.00
140.00	464.00
141.00	602.00
142.00	697.00
143.00	873.00
144.00	881.00
145.00	934.00
146.00	822.00
147.00	802.00
148.00	676.00
149.00	621.00
150.00	556.00
151.00	510.00
152.00	480.00
153.00	448.00
154.00	393.00
155.00	373.00
156.00	366.00
157.00	322.00
158.00	357.00
159.00	475.00
160.00	708.00
161.00	1124.00
162.00	1956.00
163.00	3054.00
164.00	4597.00
165.00	6639.00
166.00	8544.00
167.00	10185.00
168.00	11300.00
169.00	11906.00
170.00	11622.00
171.00	10390.00
172.00	8514.00
173.00	6899.00
174.00	4886.00
175.00	3535.00
176.00	2519.00
177.00	1861.00
178.00	1305.00
179.00	959.00
180.00	778.00
181.00	674.00
182.00	572.00
183.00	465.00
184.00	420.00
185.00	376.00
186.00	392.00
187.00	355.00
188.00	336.00
189.00	367.00
190.00	365.00
191.00	395.00
192.00	353.00
193.00	287.00
194.00	331.00
195.00	284.00
196.00	295.00
197.00	274.00
198.00	235.00
199.00	209.00
200.00	217.00
201.00	164.00
202.00	175.00
203.00	192.00
204.00	160.00
205.00	168.00
206.00	157.00
207.00	164.00
208.00	138.00
209.00	150.00
210.00	143.00
211.00	171.00
212.00	152.00
213.00	144.00
214.00	129.00
215.00	175.00
216.00	177.00
217.00	177.00
218.00	175.00
219.00	193.00
220.00	228.00
221.00	210.00
222.00	184.00
223.00	232.00
224.00	197.00
225.00	229.00
226.00	199.00
227.00	230.00
228.00	178.00
229.00	201.00
230.00	158.00
231.00	141.00
232.00	148.00
233.00	155.00
234.00	134.00
235.00	140.00
236.00	177.00
237.00	124.00
238.00	150.00
239.00	161.00
240.00	150.00
241.00	167.00
242.00	136.00
243.00	137.00
244.00	152.00
245.00	154.00
246.00	150.00
247.00	145.00
248.00	136.00
249.00	151.00
250.00	137.00
251.00	159.00
252.00	167.00
253.00	171.00
254.00	147.00
255.00	177.00
256.00	155.00
257.00	189.00
258.00	183.00
259.00	180.00
260.00	167.00
261.00	180.00
262.00	205.00
263.00	203.00
264.00	237.00
265.00	216.00
266.00	238.00
267.00	272.00
268.00	284.00
269.00	294.00
270.00	228.00
271.00	232.00
272.00	238.00
273.00	189.00
274.00	246.00
275.00	243.00
276.00	272.00
277.00	347.00
278.00	481.00
279.00	644.00
280.00	855.00
281.00	1172.00
282.00	1569.00
283.00	1879.00
284.00	2357.00
285.00	2568.00
286.00	2863.00
287.00	2682.00
288.00	2695.00
289.00	2488.00
290.00	2097.00
291.00	1748.00
292.00	1422.00
293.00	1124.00
294.00	761.00
295.00	610.00
296.00	454.00
297.00	316.00
298.00	254.00
299.00	252.00
300.00	222.00
301.00	250.00
302.00	263.00
303.00	295.00
304.00	357.00
305.00	425.00
306.00	537.00
307.00	611.00
308.00	737.00
309.00	917.00
310.00	1192.00
311.00	1735.00
312.00	2516.00
313.00	3618.00
314.00	4839.00
315.00	6763.00
316.00	8817.00
317.00	11323.00
318.00	13376.00
319.00	15408.00
320.00	16808.00
321.00	17190.00
322.00	17000.00
323.00	15822.00
324.00	13866.00
325.00	11858.00
326.00	9528.00
327.00	7273.00
328.00	5332.00
329.00	3682.00
330.00	2448.00
331.00	1609.00
332.00	977.00
333.00	698.00
334.00	512.00
335.00	404.00
336.00	384.00
337.00	446.00
338.00	497.00
339.00	687.00
340.00	819.00
341.00	1065.00
342.00	1395.00
343.00	1729.00
344.00	2176.00
345.00	2643.00
346.00	3069.00
347.00	3858.00
348.00	4507.00
349.00	5409.00
350.00	6651.00
351.00	8056.00
352.00	9532.00
353.00	11206.00
354.00	12972.00
355.00	14641.00
356.00	16111.00
357.00	16287.00
358.00	16342.00
359.00	15497.00
360.00	14106.00
361.00	12081.00
362.00	10086.00
363.00	7998.00
364.00	5936.00
365.00	4409.00
366.00	3077.00
367.00	2042.00
368.00	1392.00
369.00	888.00
370.00	596.00
371.00	409.00
372.00	344.00
373.00	302.00
374.00	280.00
375.00	278.00
376.00	361.00
377.00	386.00
378.00	482.00
379.00	557.00
380.00	749.00
381.00	929.00
382.00	1173.00
383.00	1418.00
384.00	1842.00
385.00	2034.00
386.00	2305.00
387.00	2546.00
388.00	2584.00
389.00	2603.00
390.00	2476.00
391.00	2297.00
392.00	2134.00
393.00	1718.00
394.00	1505.00
395.00	1221.00
396.00	1007.00
397.00	827.00
398.00	671.00
399.00	538.00
400.00	428.00
401.00	396.00
402.00	367.00
403.00	334.00
404.00	338.00
405.00	287.00
406.00	290.00
407.00	289.00
408.00	291.00
409.00	277.00
410.00	266.00
411.00	292.00
412.00	312.00
413.00	299.00
414.00	352.00
415.00	332.00
416.00	291.00
417.00	337.00
418.00	362.00
419.00	430.00
420.00	497.00
421.00	600.00
422.00	687.00
423.00	844.00
424.00	1156.00
425.00	1572.00
426.00	2195.00
427.00	2961.00
428.00	4087.00
429.00	5280.00
430.00	6777.00
431.00	8335.00
432.00	10083.00
433.00	11382.00
434.00	12619.00
435.00	13702.00
436.00	13944.00
437.00	13697.00
438.00	13001.00
439.00	11902.00
440.00	10536.00
441.00	9295.00
442.00	7564.00
443.00	6253.00
444.00	5026.00
445.00	4208.00
446.00	3543.00
447.00	3148.00
448.00	2845.00
449.00	2493.00
450.00	2399.00
451.00	2215.00
452.00	2127.00
453.00	2025.00
454.00	1868.00
455.00	1541.00
456.00	1493.00
457.00	1315.00
458.00	1237.00
459.00	1210.00
460.00	1226.00
461.00	1241.00
462.00	1341.00
463.00	1464.00
464.00	1519.00
465.00	1660.00
466.00	1765.00
467.00	1952.00
468.00	2117.00
469.00	2283.00
470.00	2422.00
471.00	2671.00
472.00	2899.00
473.00	3097.00
474.00	3290.00
475.00	3448.00
476.00	3473.00
477.00	3567.00
478.00	3567.00
479.00	3263.00
480.00	3039.00
481.00	2746.00
482.00	2528.00
483.00	2162.00
484.00	1910.00
485.00	1642.00
486.00	1382.00
487.00	1164.00
488.00	1021.00
489.00	981.00
490.00	866.00
491.00	890.00
492.00	814.00
493.00	881.00
494.00	884.00
495.00	861.00
496.00	957.00
497.00	978.00
498.00	1011.00
499.00	927.00
500.00	1065.00
501.00	1028.00
502.00	1143.00
503.00	1208.00
504.00	1182.00
505.00	1203.00
506.00	1189.00
507.00	1129.00
508.00	1228.00
509.00	1273.00
510.00	1264.00
511.00	1330.00
512.00	1357.00
513.00	1421.00
514.00	1533.00
515.00	1604.00
516.00	1706.00
517.00	1827.00
518.00	1926.00
519.00	2090.00
520.00	2201.00
521.00	2330.00
522.00	2380.00
523.00	2418.00
524.00	2386.00
525.00	2449.00
526.00	2306.00
527.00	2256.00
528.00	2148.00
529.00	2007.00
530.00	1866.00
531.00	1762.00
532.00	1824.00
533.00	1772.00
534.00	1698.00
535.00	1647.00
536.00	1661.00
537.00	1689.00
538.00	1645.00
539.00	1721.00
540.00	1714.00
541.00	1611.00
542.00	1640.00
543.00	1603.00
544.00	1621.00
545.00	1596.00
546.00	1554.00
547.00	1552.00
548.00	1531.00
549.00	1617.00
550.00	1541.00
551.00	1560.00
552.00	1616.00
553.00	1712.00
554.00	1905.00
555.00	2091.00
556.00	2515.00
557.00	3047.00
558.00	3782.00
559.00	4790.00
560.00	6230.00
561.00	7870.00
562.00	9752.00
563.00	12217.00
564.00	14603.00
565.00	17040.00
566.00	19480.00
567.00	21861.00
568.00	23096.00
569.00	24154.00
570.00	24569.00
571.00	23750.00
572.00	22719.00
573.00	21095.00
574.00	18866.00
575.00	16178.00
576.00	13861.00
577.00	11409.00
578.00	9149.00
579.00	7461.00
580.00	5737.00
581.00	4588.00
582.00	3655.00
583.00	3121.00
584.00	2598.00
585.00	2382.00
586.00	2262.00
587.00	2254.00
588.00	2141.00
589.00	2180.00
590.00	2266.00
591.00	2193.00
592.00	2540.00
593.00	2513.00
594.00	2680.00
595.00	2956.00
596.00	3221.00
597.00	3520.00
598.00	4129.00
599.00	5102.00
600.00	6367.00
601.00	8599.00
602.00	11444.00
603.00	16208.00
604.00	22995.00
605.00	32621.00
606.00	46009.00
607.00	64405.00
608.00	87592.00
609.00	116360.00
610.00	150540.00
611.00	189945.00
612.00	233952.00
613.00	277950.00
614.00	321723.00
615.00	363501.00
616.00	395357.00
617.00	419668.00
618.00	430836.00
619.00	431070.00
620.00	416942.00
621.00	391558.00
622.00	357584.00
623.00	315626.00
624.00	272227.00
625.00	225424.00
626.00	183500.00
627.00	145249.00
628.00	110597.00
629.00	83143.00
630.00	60269.00
631.00	43694.00
632.00	30552.00
633.00	21535.00
634.00	15296.00
635.00	10719.00
636.00	7789.00
637.00	5892.00
638.00	4660.00
639.00	4035.00
640.00	3606.00
641.00	3395.00
642.00	3058.00
643.00	3096.00
644.00	2971.00
645.00	2997.00
646.00	3150.00
647.00	3039.00
648.00	3006.00
649.00	3165.00
650.00	3198.00
651.00	3317.00
652.00	3411.00
653.00	3286.00
654.00	3385.00
655.00	3616.00
656.00	3596.00
657.00	3787.00
658.00	3888.00
659.00	4080.00
660.00	4307.00
661.00	4346.00
662.00	4789.00
663.00	5230.00
664.00	5553.00
665.00	6363.00
666.00	7405.00
667.00	8636.00
668.00	10547.00
669.00	12707.00
670.00	15502.00
671.00	19323.00
672.00	23893.00
673.00	28674.00
674.00	34723.00
675.00	40957.00
676.00	47405.00
677.00	53971.00
678.00	59384.00
679.00	64219.00
680.00	67190.00
681.00	68463.00
682.00	69301.00
683.00	67481.00
684.00	63800.00
685.00	59155.00
686.00	53287.00
687.00	46683.00
688.00	39910.00
689.00	33535.00
690.00	27495.00
691.00	22285.00
692.00	17623.00
693.00	13421.00
694.00	10677.00
695.00	8312.00
696.00	6655.00
697.00	5405.00
698.00	4393.00
699.00	3959.00
700.00	3485.00
701.00	3190.00
702.00	3205.00
703.00	3154.00
704.00	2989.00
705.00	2972.00
706.00	2954.00
707.00	3083.00
708.00	3179.00
709.00	3184.00
710.00	3236.00
711.00	3371.00
712.00	3589.00
713.00	3731.00
714.00	3812.00
715.00	3877.00
716.00	4150.00
717.00	4341.00
718.00	4433.00
719.00	4524.00
720.00	4711.00
721.00	4833.00
722.00	4721.00
723.00	4661.00
724.00	4695.00
725.00	4570.00
726.00	4311.00
727.00	4135.00
728.00	4008.00
729.00	3737.00
730.00	3539.00
731.00	3307.00
732.00	3215.00
733.00	3026.00
734.00	2948.00
735.00	2930.00
736.00	2746.00
737.00	2717.00
738.00	2697.00
739.00	2603.00
740.00	2603.00
741.00	2614.00
742.00	2637.00
743.00	2636.00
744.00	2537.00
745.00	2591.00
746.00	2679.00
747.00	2645.00
748.00	2625.00
749.00	2719.00
750.00	2626.00
751.00	2668.00
752.00	2838.00
753.00	2669.00
754.00	2792.00
755.00	2899.00
756.00	2850.00
757.00	2995.00
758.00	2972.00
759.00	3002.00
760.00	3101.00
761.00	3162.00
762.00	3216.00
763.00	3380.00
764.00	3426.00
765.00	3738.00
766.00	3800.00
767.00	3881.00
768.00	4084.00
769.00	4155.00
770.00	4432.00
771.00	4620.00
772.00	4755.00
773.00	4874.00
774.00	5126.00
775.00	5185.00
776.00	5404.00
777.00	5279.00
778.00	5444.00
779.00	5399.00
780.00	5347.00
781.00	5327.00
782.00	5317.00
783.00	5195.00
784.00	5086.00
785.00	5098.00
786.00	4961.00
787.00	5089.00
788.00	4945.00
789.00	4843.00
790.00	4825.00
791.00	4813.00
792.00	4932.00
793.00	4911.00
794.00	4918.00
795.00	4933.00
796.00	4792.00
797.00	4982.00
798.00	4993.00
799.00	4898.00
800.00	4961.00
801.00	4818.00
802.00	4855.00
803.00	4927.00
804.00	4840.00
805.00	4844.00
806.00	4839.00
807.00	4887.00
808.00	4800.00
809.00	4770.00
810.00	4898.00
811.00	4800.00
812.00	4711.00
813.00	4783.00
814.00	4933.00
815.00	4622.00
816.00	4741.00
817.00	4822.00
818.00	4739.00
819.00	4982.00
820.00	5096.00
821.00	5263.00
822.00	5405.00
823.00	5746.00
824.00	5914.00
825.00	6224.00
826.00	6683.00
827.00	6902.00
828.00	7489.00
829.00	7771.00
830.00	8125.00
831.00	8404.00
832.00	8680.00
833.00	8719.00
834.00	8618.00
835.00	8643.00
836.00	8457.00
837.00	8262.00
838.00	7801.00
839.00	7386.00
840.00	7169.00
841.00	6839.00
842.00	6251.00
843.00	6042.00
844.00	5902.00
845.00	5497.00
846.00	5279.00
847.00	5154.00
848.00	4953.00
849.00	5049.00
850.00	5018.00
851.00	4866.00
852.00	4709.00
853.00	4863.00
854.00	4793.00
855.00	4927.00
856.00	4956.00
857.00	4873.00
858.00	4900.00
859.00	5049.00
860.00	5013.00
861.00	5132.00
862.00	5107.00
863.00	5060.00
864.00	5006.00
865.00	4958.00
866.00	5164.00
867.00	5023.00
868.00	5057.00
869.00	5022.00
870.00	5176.00
871.00	5227.00
872.00	5069.00
873.00	5281.00
874.00	5274.00
875.00	5321.00
876.00	5302.00
877.00	5415.00
878.00	5461.00
879.00	5488.00
880.00	5482.00
881.00	5712.00
882.00	5692.00
883.00	5706.00
884.00	5841.00
885.00	5874.00
886.00	5907.00
887.00	5840.00
888.00	5788.00
889.00	6113.00
890.00	5962.00
891.00	6045.00
892.00	6063.00
893.00	6061.00
894.00	6104.00
895.00	6104.00
896.00	6127.00
897.00	6229.00
898.00	5910.00
899.00	6013.00
900.00	5945.00
901.00	5977.00
902.00	5966.00
903.00	5905.00
904.00	5870.00
905.00	5946.00
906.00	6049.00
907.00	5929.00
908.00	6016.00
909.00	5934.00
910.00	6086.00
911.00	5946.00
912.00	6167.00
913.00	6104.00
914.00	6265.00
915.00	6364.00
916.00	6414.00
917.00	6475.00
918.00	6397.00
919.00	6649.00
920.00	6684.00
921.00	6836.00
922.00	6851.00
923.00	6974.00
924.00	6874.00
925.00	6748.00
926.00	6925.00
927.00	6817.00
928.00	6671.00
929.00	6845.00
930.00	6791.00
931.00	6509.00
932.00	6587.00
933.00	6476.00
934.00	6553.00
935.00	6362.00
936.00	6510.00
937.00	6351.00
938.00	6311.00
939.00	6248.00
940.00	6159.00
941.00	6242.00
942.00	5892.00
943.00	6183.00
944.00	6006.00
945.00	6215.00
946.00	6048.00
947.00	6090.00
948.00	6076.00
949.00	6115.00
950.00	6133.00
951.00	5940.00
952.00	6149.00
953.00	6190.00
954.00	6178.00
955.00	6141.00
956.00	6150.00
957.00	6131.00
958.00	6217.00
959.00	6225.00
960.00	6218.00
961.00	6110.00
962.00	6107.00
963.00	6308.00
964.00	6240.00
965.00	6272.00
966.00	6169.00
967.00	6178.00
968.00	6156.00
969.00	6069.00
970.00	6285.00
971.00	6189.00
972.00	6313.00
973.00	6221.00
974.00	6243.00
975.00	6219.00
976.00	6400.00
977.00	6139.00
978.00	6245.00
979.00	6392.00
980.00	6259.00
981.00	6390.00
982.00	6216.00
983.00	6287.00
984.00	6400.00
985.00	6368.00
986.00	6274.00
987.00	6352.00
988.00	6407.00
989.00	6229.00
990.00	6433.00
991.00	6415.00
992.00	6368.00
993.00	6301.00
994.00	6396.00
995.00	6217.00
996.00	6426.00
997.00	6322.00
998.00	6358.00
999.00	6168.00
1000.00	6290.00
1001.00	6168.00
1002.00	6326.00
1003.00	6315.00
1004.00	6471.00
1005.00	6566.00
1006.00	6507.00
1007.00	6549.00
1008.00	6639.00
1009.00	6579.00
1010.00	6579.00
1011.00	6611.00
1012.00	6833.00
1013.00	6995.00
1014.00	6769.00
1015.00	6997.00
1016.00	7049.00
1017.00	7106.00
1018.00	6854.00
1019.00	7041.00
1020.00	7042.00
1021.00	6866.00
1022.00	6810.00
1023.00	6786.00
1024.00	6646.00
1025.00	6654.00
1026.00	6710.00
1027.00	6710.00
1028.00	6516.00
1029.00	6633.00
1030.00	6403.00
1031.00	6471.00
1032.00	6313.00
1033.00	6394.00
1034.00	6344.00
1035.00	6479.00
1036.00	6303.00
1037.00	6330.00
1038.00	6503.00
1039.00	6269.00
1040.00	6383.00
1041.00	6354.00
1042.00	6534.00
1043.00	6428.00
1044.00	6496.00
1045.00	6500.00
1046.00	6571.00
1047.00	6511.00
1048.00	6463.00
1049.00	6612.00
1050.00	6752.00
1051.00	6654.00
1052.00	6454.00
1053.00	6671.00
1054.00	6759.00
1055.00	6590.00
1056.00	6717.00
1057.00	6736.00
1058.00	6616.00
1059.00	6708.00
1060.00	6711.00
1061.00	6602.00
1062.00	6728.00
1063.00	6623.00
1064.00	6696.00
1065.00	6835.00
1066.00	6713.00
1067.00	6837.00
1068.00	6862.00
1069.00	6849.00
1070.00	6818.00
1071.00	6685.00
1072.00	6764.00
1073.00	6841.00
1074.00	6910.00
1075.00	6849.00
1076.00	6740.00
1077.00	6850.00
1078.00	6768.00
1079.00	6841.00
1080.00	7054.00
1081.00	6760.00
1082.00	6847.00
1083.00	6947.00
1084.00	6857.00
1085.00	6786.00
1086.00	6866.00
1087.00	6867.00
1088.00	6978.00
1089.00	6908.00
1090.00	6934.00
1091.00	6944.00
1092.00	7007.00
1093.00	6882.00
1094.00	7084.00
1095.00	6989.00
1096.00	6922.00
1097.00	6939.00
1098.00	7068.00
1099.00	7007.00
1100.00	7090.00
1101.00	7006.00
1102.00	7134.00
1103.00	7182.00
1104.00	7049.00
1105.00	6945.00
1106.00	6881.00
1107.00	6922.00
1108.00	6993.00
1109.00	7028.00
1110.00	6929.00
1111.00	7030.00
1112.00	7083.00
1113.00	6951.00
1114.00	6867.00
1115.00	6849.00
1116.00	6937.00
1117.00	7001.00
1118.00	6945.00
1119.00	6991.00
1120.00	6915.00
1121.00	6857.00
1122.00	6972.00
1123.00	6871.00
1124.00	6903.00
1125.00	6936.00
1126.00	6910.00
1127.00	6922.00
1128.00	6768.00
1129.00	6939.00
1130.00	6998.00
1131.00	6871.00
1132.00	6913.00
1133.00	6929.00
1134.00	6880.00
1135.00	6929.00
1136.00	6908.00
1137.00	6882.00
1138.00	6969.00
1139.00	6888.00
1140.00	6846.00
1141.00	6957.00
1142.00	7015.00
1143.00	6881.00
1144.00	6889.00
1145.00	6886.00
1146.00	7079.00
1147.00	7020.00
1148.00	6899.00
1149.00	7037.00
1150.00	7100.00
1151.00	7088.00
1152.00	6938.00
1153.00	6946.00
1154.00	6994.00
1155.00	6935.00
1156.00	6911.00
1157.00	6857.00
1158.00	6954.00
1159.00	6811.00
1160.00	6984.00
1161.00	6936.00
1162.00	6805.00
1163.00	6834.00
1164.00	6755.00
1165.00	6778.00
1166.00	6853.00
1167.00	6915.00
1168.00	6782.00
1169.00	6876.00
1170.00	6659.00
1171.00	6958.00
1172.00	6821.00
1173.00	6912.00
1174.00	6821.00
1175.00	6838.00
1176.00	6871.00
1177.00	7058.00
1178.00	7073.00
1179.00	6978.00
1180.00	6869.00
1181.00	6850.00
1182.00	6985.00
1183.00	6923.00
1184.00	6979.00
1185.00	7021.00
1186.00	6905.00
1187.00	7048.00
1188.00	7042.00
1189.00	7013.00
1190.00	6996.00
1191.00	7102.00
1192.00	7150.00
1193.00	7039.00
1194.00	7005.00
1195.00	7115.00
1196.00	7011.00
1197.00	7099.00
1198.00	7070.00
1199.00	7070.00
1200.00	7096.00
1201.00	7258.00
1202.00	7286.00
1203.00	7259.00
1204.00	7122.00
1205.00	7050.00
1206.00	7159.00
1207.00	7305.00
1208.00	7271.00
1209.00	7336.00
1210.00	7288.00
1211.00	7125.00
1212.00	7224.00
1213.00	7403.00
1214.00	7311.00
1215.00	7345.00
1216.00	7249.00
1217.00	7322.00
1218.00	7547.00
1219.00	7407.00
1220.00	7527.00
1221.00	7585.00
1222.00	7612.00
1223.00	7563.00
1224.00	7571.00
1225.00	7710.00
1226.00	7646.00
1227.00	7584.00
1228.00	7703.00
1229.00	7838.00
1230.00	7758.00
1231.00	8076.00
1232.00	7932.00
1233.00	7902.00
1234.00	7893.00
1235.00	7769.00
1236.00	7850.00
1237.00	7982.00
1238.00	7604.00
1239.00	7763.00
1240.00	7706.00
1241.00	7843.00
1242.00	7629.00
1243.00	7589.00
1244.00	7559.00
1245.00	7372.00
1246.00	7518.00
1247.00	7389.00
1248.00	7460.00
1249.00	7139.00
1250.00	7151.00
1251.00	7239.00
1252.00	7284.00
1253.00	7302.00
1254.00	7098.00
1255.00	7295.00
1256.00	7306.00
1257.00	7189.00
1258.00	7188.00
1259.00	7074.00
1260.00	7154.00
1261.00	7164.00
1262.00	7161.00
1263.00	7150.00
1264.00	7208.00
1265.00	7250.00
1266.00	7197.00
1267.00	7173.00
1268.00	7138.00
1269.00	7114.00
1270.00	7007.00
1271.00	7186.00
1272.00	7231.00
1273.00	7289.00
1274.00	7337.00
1275.00	7421.00
1276.00	7361.00
1277.00	7677.00
1278.00	7542.00
1279.00	7658.00
1280.00	7790.00
1281.00	7727.00
1282.00	7937.00
1283.00	8204.00
1284.00	8131.00
1285.00	8298.00
1286.00	8243.00
1287.00	8497.00
1288.00	8674.00
1289.00	8722.00
1290.00	8432.00
1291.00	8666.00
1292.00	8684.00
1293.00	8692.00
1294.00	8447.00
1295.00	8476.00
1296.00	8248.00
1297.00	8202.00
1298.00	8141.00
1299.00	7992.00
1300.00	7922.00
1301.00	7921.00
1302.00	7849.00
1303.00	7554.00
1304.00	7616.00
1305.00	7528.00
1306.00	7398.00
1307.00	7130.00
1308.00	7143.00
1309.00	7223.00
1310.00	7248.00
1311.00	7073.00
1312.00	7136.00
1313.00	6974.00
1314.00	7117.00
1315.00	7025.00
1316.00	7016.00
1317.00	7055.00
1318.00	7147.00
1319.00	6857.00
1320.00	6842.00
1321.00	6977.00
1322.00	6977.00
1323.00	6958.00
1324.00	6830.00
1325.00	6832.00
1326.00	6797.00
1327.00	6821.00
1328.00	6938.00
1329.00	6896.00
1330.00	6844.00
1331.00	6954.00
1332.00	6847.00
1333.00	6817.00
1334.00	6815.00
1335.00	6887.00
1336.00	6774.00
1337.00	6699.00
1338.00	6766.00
1339.00	6891.00
1340.00	6849.00
1341.00	6894.00
1342.00	6884.00
1343.00	6621.00
1344.00	6813.00
1345.00	6892.00
1346.00	6889.00
1347.00	6940.00
1348.00	6817.00
1349.00	6924.00
1350.00	6854.00
1351.00	7190.00
1352.00	7019.00
1353.00	7061.00
1354.00	7219.00
1355.00	7374.00
1356.00	7432.00
1357.00	7417.00
1358.00	7597.00
1359.00	7671.00
1360.00	7479.00
1361.00	7610.00
1362.00	7565.00
1363.00	7795.00
1364.00	7806.00
1365.00	7724.00
1366.00	7566.00
1367.00	7410.00
1368.00	7587.00
1369.00	7319.00
1370.00	7377.00
1371.00	7092.00
1372.00	7202.00
1373.00	7197.00
1374.00	6834.00
1375.00	6890.00
1376.00	6688.00
1377.00	6746.00
1378.00	6541.00
1379.00	6576.00
1380.00	6518.00
1381.00	6402.00
1382.00	6438.00
1383.00	6429.00
1384.00	6277.00
1385.00	6436.00
1386.00	6270.00
1387.00	6257.00
1388.00	6171.00
1389.00	6232.00
1390.00	6233.00
1391.00	6084.00
1392.00	6019.00
1393.00	6258.00
1394.00	6215.00
1395.00	6094.00
1396.00	6223.00
1397.00	6153.00
1398.00	6161.00
1399.00	6018.00
1400.00	6022.00
1401.00	6156.00
1402.00	6050.00
1403.00	6094.00
1404.00	6096.00
1405.00	6066.00
1406.00	5977.00
1407.00	6069.00
1408.00	5918.00
1409.00	6024.00
1410.00	5963.00
1411.00	5950.00
1412.00	5946.00
1413.00	5995.00
1414.00	6040.00
1415.00	5910.00
1416.00	6112.00
1417.00	6011.00
1418.00	6188.00
1419.00	6036.00
1420.00	6186.00
1421.00	6026.00
1422.00	5889.00
1423.00	6173.00
1424.00	6014.00
1425.00	6140.00
1426.00	6115.00
1427.00	6235.00
1428.00	6164.00
1429.00	6320.00
1430.00	6193.00
1431.00	6329.00
1432.00	6193.00
1433.00	6310.00
1434.00	6380.00
1435.00	6328.00
1436.00	6574.00
1437.00	6478.00
1438.00	6385.00
1439.00	6581.00
1440.00	6548.00
1441.00	6593.00
1442.00	6503.00
1443.00	6467.00
1444.00	6399.00
1445.00	6509.00
1446.00	6482.00
1447.00	6341.00
1448.00	6420.00
1449.00	6321.00
1450.00	6330.00
1451.00	6093.00
1452.00	6175.00
1453.00	6083.00
1454.00	6112.00
1455.00	6004.00
1456.00	6043.00
1457.00	5896.00
1458.00	5814.00
1459.00	6052.00
1460.00	5930.00
1461.00	5897.00
1462.00	5761.00
1463.00	5851.00
1464.00	5787.00
1465.00	5860.00
1466.00	5911.00
1467.00	5873.00
1468.00	5971.00
1469.00	5802.00
1470.00	5896.00
1471.00	5636.00
1472.00	5658.00
1473.00	5852.00
1474.00	5898.00
1475.00	5706.00
1476.00	5765.00
1477.00	5776.00
1478.00	5883.00
1479.00	5787.00
1480.00	5808.00
1481.00	5834.00
1482.00	5843.00
1483.00	5727.00
1484.00	5793.00
1485.00	5728.00
1486.00	5691.00
1487.00	5930.00
1488.00	5900.00
1489.00	5687.00
1490.00	5746.00
1491.00	5813.00
1492.00	5939.00
1493.00	5626.00
1494.00	5731.00
1495.00	5799.00
1496.00	5681.00
1497.00	5914.00
1498.00	5744.00
1499.00	5906.00
1500.00	5834.00
1501.00	5913.00
1502.00	5863.00
1503.00	5990.00
1504.00	5906.00
1505.00	6059.00
1506.00	6168.00
1507.00	6281.00
1508.00	6346.00
1509.00	6417.00
1510.00	6436.00
1511.00	6455.00
1512.00	6505.00
1513.00	6602.00
1514.00	6661.00
1515.00	6730.00
1516.00	6609.00
1517.00	6801.00
1518.00	6891.00
1519.00	6824.00
1520.00	6765.00
1521.00	6774.00
1522.00	6748.00
1523.00	7015.00
1524.00	6813.00
1525.00	6681.00
1526.00	6707.00
1527.00	6705.00
1528.00	6587.00
1529.00	6580.00
1530.00	6664.00
1531.00	6452.00
1532.00	6459.00
1533.00	6390.00
1534.00	6356.00
1535.00	6411.00
1536.00	6336.00
1537.00	6511.00
1538.00	6404.00
1539.00	6389.00
1540.00	6207.00
1541.00	6331.00
1542.00	6368.00
1543.00	6233.00
1544.00	6339.00
1545.00	6517.00
1546.00	6465.00
1547.00	6530.00
1548.00	6615.00
1549.00	6695.00
1550.00	6885.00
1551.00	6874.00
1552.00	6825.00
1553.00	6888.00
1554.00	7032.00
1555.00	7229.00
1556.00	7144.00
1557.00	7449.00
1558.00	7229.00
1559.00	7448.00
1560.00	7681.00
1561.00	7932.00
1562.00	7914.00
1563.00	8083.00
1564.00	8073.00
1565.00	8172.00
1566.00	8174.00
1567.00	8418.00
1568.00	8446.00
1569.00	8817.00
1570.00	8894.00
1571.00	9043.00
1572.00	9078.00
1573.00	9399.00
1574.00	9466.00
1575.00	9483.00
1576.00	9502.00
1577.00	9543.00
1578.00	9516.00
1579.00	9830.00
1580.00	9892.00
1581.00	9827.00
1582.00	10030.00
1583.00	10051.00
1584.00	10074.00
1585.00	10334.00
1586.00	10184.00
1587.00	10264.00
1588.00	10097.00
1589.00	10155.00
1590.00	10099.00
1591.00	10143.00
1592.00	10162.00
1593.00	10033.00
1594.00	9787.00
1595.00	9936.00
1596.00	9722.00
1597.00	9829.00
1598.00	9770.00
1599.00	9694.00
1600.00	9329.00
1601.00	9394.00
1602.00	9337.00
1603.00	9170.00
1604.00	9050.00
1605.00	8803.00
1606.00	8673.00
1607.00	8722.00
1608.00	8545.00
1609.00	8368.00
1610.00	8167.00
1611.00	7981.00
1612.00	7838.00
1613.00	7818.00
1614.00	7525.00
1615.00	7334.00
1616.00	7240.00
1617.00	7300.00
1618.00	7137.00
1619.00	6984.00
1620.00	6950.00
1621.00	6664.00
1622.00	6652.00
1623.00	6350.00
1624.00	6426.00
1625.00	6093.00
1626.00	6183.00
1627.00	6032.00
1628.00	6071.00
1629.00	5894.00
1630.00	5725.00
1631.00	5703.00
1632.00	5516.00
1633.00	5588.00
1634.00	5532.00
1635.00	5617.00
1636.00	5338.00
1637.00	5457.00
1638.00	5362.00
1639.00	5127.00
1640.00	5258.00
1641.00	5349.00
1642.00	5059.00
1643.00	5098.00
1644.00	4929.00
1645.00	4948.00
1646.00	5054.00
1647.00	4818.00
1648.00	4925.00
1649.00	4868.00
1650.00	4854.00
1651.00	4831.00
1652.00	4736.00
1653.00	4817.00
1654.00	4928.00
1655.00	4832.00
1656.00	4961.00
1657.00	4821.00
1658.00	4911.00
1659.00	4956.00
1660.00	5066.00
1661.00	5233.00
1662.00	5231.00
1663.00	5283.00
1664.00	5643.00
1665.00	5516.00
1666.00	5779.00
1667.00	6010.00
1668.00	6263.00
1669.00	6376.00
1670.00	6692.00
1671.00	7042.00
1672.00	7098.00
1673.00	7324.00
1674.00	7520.00
1675.00	7781.00
1676.00	7888.00
1677.00	8280.00
1678.00	8368.00
1679.00	8418.00
1680.00	8609.00
1681.00	8720.00
1682.00	8744.00
1683.00	8795.00
1684.00	8572.00
1685.00	8539.00
1686.00	8266.00
1687.00	8183.00
1688.00	8033.00
1689.00	7669.00
1690.00	7579.00
1691.00	7294.00
1692.00	6933.00
1693.00	6520.00
1694.00	6406.00
1695.00	6015.00
1696.00	5756.00
1697.00	5477.00
1698.00	5324.00
1699.00	5177.00
1700.00	4930.00
1701.00	4756.00
1702.00	4556.00
1703.00	4590.00
1704.00	4423.00
1705.00	4119.00
1706.00	4071.00
1707.00	4109.00
1708.00	3992.00
1709.00	4009.00
1710.00	3936.00
1711.00	3880.00
1712.00	3780.00
1713.00	3815.00
1714.00	3800.00
1715.00	3732.00
1716.00	3779.00
1717.00	3696.00
1718.00	3644.00
1719.00	3670.00
1720.00	3689.00
1721.00	3707.00
1722.00	3589.00
1723.00	3614.00
1724.00	3681.00
1725.00	3707.00
1726.00	3587.00
1727.00	3686.00
1728.00	3607.00
1729.00	3691.00
1730.00	3718.00
1731.00	3748.00
1732.00	3715.00
1733.00	3718.00
1734.00	3620.00
1735.00	3659.00
1736.00	3735.00
1737.00	3660.00
1738.00	3727.00
1739.00	3680.00
1740.00	3747.00
1741.00	3628.00
1742.00	3747.00
1743.00	3685.00
1744.00	3707.00
1745.00	3717.00
1746.00	3700.00
1747.00	3706.00
1748.00	3799.00
1749.00	3716.00
1750.00	3753.00
1751.00	3674.00
1752.00	3745.00
1753.00	3746.00
1754.00	3808.00
1755.00	3851.00
1756.00	3834.00
1757.00	3827.00
1758.00	3973.00
1759.00	3768.00
1760.00	3775.00
1761.00	3890.00
1762.00	3965.00
1763.00	3893.00
1764.00	3799.00
1765.00	3857.00
1766.00	3896.00
1767.00	3829.00
1768.00	3830.00
1769.00	3845.00
1770.00	3869.00
1771.00	3725.00
1772.00	3913.00
1773.00	3839.00
1774.00	3859.00
1775.00	3665.00
1776.00	3848.00
1777.00	3715.00
1778.00	3742.00
1779.00	3674.00
1780.00	3666.00
1781.00	3675.00
1782.00	3626.00
1783.00	3693.00
1784.00	3590.00
1785.00	3613.00
1786.00	3429.00
1787.00	3539.00
1788.00	3526.00
1789.00	3522.00
1790.00	3468.00
1791.00	3411.00
1792.00	3378.00
1793.00	3411.00
1794.00	3291.00
1795.00	3338.00
1796.00	3391.00
1797.00	3190.00
1798.00	3143.00
1799.00	3182.00
1800.00	3052.00
1801.00	3117.00
1802.00	3055.00
1803.00	3049.00
1804.00	2880.00
1805.00	2968.00
1806.00	2935.00
1807.00	3001.00
1808.00	2854.00
1809.00	2814.00
1810.00	2838.00
1811.00	2762.00
1812.00	2692.00
1813.00	2775.00
1814.00	2672.00
1815.00	2643.00
1816.00	2691.00
1817.00	2610.00
1818.00	2572.00
1819.00	2521.00
1820.00	2460.00
1821.00	2462.00
1822.00	2546.00
1823.00	2425.00
1824.00	2471.00
1825.00	2388.00
1826.00	2411.00
1827.00	2281.00
1828.00	2371.00
1829.00	2312.00
1830.00	2387.00
1831.00	2250.00
1832.00	2213.00
1833.00	2253.00
1834.00	2225.00
1835.00	2159.00
1836.00	2254.00
1837.00	2131.00
1838.00	2238.00
1839.00	2225.00
1840.00	2096.00
1841.00	2077.00
1842.00	2139.00
1843.00	2064.00
1844.00	2038.00
1845.00	2107.00
1846.00	2085.00
1847.00	2111.00
1848.00	2068.00
1849.00	2005.00
1850.00	2002.00
1851.00	2107.00
1852.00	2054.00
1853.00	1969.00
1854.00	1986.00
1855.00	1940.00
1856.00	1945.00
1857.00	1889.00
1858.00	1845.00
1859.00	1987.00
1860.00	1905.00
1861.00	1848.00
1862.00	1947.00
1863.00	1907.00
1864.00	1931.00
1865.00	1852.00
1866.00	1922.00
1867.00	1889.00
1868.00	1886.00
1869.00	1868.00
1870.00	1910.00
1871.00	1887.00
1872.00	1909.00
1873.00	1946.00
1874.00	1983.00
1875.00	1934.00
1876.00	1930.00
1877.00	2006.00
1878.00	2045.00
1879.00	2094.00
1880.00	2119.00
1881.00	2107.00
1882.00	2209.00
1883.00	2230.00
1884.00	2276.00
1885.00	2285.00
1886.00	2255.00
1887.00	2282.00
1888.00	2325.00
1889.00	2297.00
1890.00	2254.00
1891.00	2220.00
1892.00	2268.00
1893.00	2171.00
1894.00	2116.00
1895.00	2099.00
1896.00	2193.00
1897.00	2088.00
1898.00	2067.00
1899.00	1980.00
1900.00	1970.00
1901.00	1893.00
1902.00	1872.00
1903.00	1759.00
1904.00	1728.00
1905.00	1717.00
1906.00	1685.00
1907.00	1685.00
1908.00	1586.00
1909.00	1666.00
1910.00	1660.00
1911.00	1591.00
1912.00	1648.00
1913.00	1543.00
1914.00	1641.00
1915.00	1490.00
1916.00	1539.00
1917.00	1427.00
1918.00	1521.00
1919.00	1456.00
1920.00	1570.00
1921.00	1529.00
1922.00	1521.00
1923.00	1548.00
1924.00	1509.00
1925.00	1443.00
1926.00	1461.00
1927.00	1531.00
1928.00	1482.00
1929.00	1484.00
1930.00	1440.00
1931.00	1524.00
1932.00	1427.00
1933.00	1342.00
1934.00	1343.00
1935.00	1414.00
1936.00	1291.00
1937.00	1347.00
1938.00	1362.00
1939.00	1316.00
1940.00	1259.00
1941.00	1293.00
1942.00	1264.00
1943.00	1224.00
1944.00	1256.00
1945.00	1247.00
1946.00	1188.00
1947.00	1253.00
1948.00	1167.00
1949.00	1229.00
1950.00	1160.00
1951.00	1207.00
1952.00	1197.00
1953.00	1160.00
1954.00	1205.00
1955.00	1136.00
1956.00	1201.00
1957.00	1142.00
1958.00	1152.00
1959.00	1148.00
1960.00	1178.00
1961.00	1193.00
1962.00	1138.00
1963.00	1168.00
1964.00	1149.00
1965.00	1113.00
1966.00	1157.00
1967.00	1035.00
1968.00	1120.00
1969.00	1072.00
1970.00	1060.00
1971.00	1085.00
1972.00	1065.00
1973.00	1054.00
1974.00	1077.00
1975.00	1020.00
1976.00	1073.00
1977.00	1003.00
1978.00	1046.00
1979.00	1047.00
1980.00	1040.00
1981.00	1076.00
1982.00	1058.00
1983.00	1031.00
1984.00	1017.00
1985.00	1053.00
1986.00	1014.00
1987.00	1024.00
1988.00	1025.00
1989.00	994.00
1990.00	970.00
1991.00	1009.00
1992.00	967.00
1993.00	1015.00
1994.00	929.00
1995.00	931.00
1996.00	983.00
1997.00	888.00
1998.00	943.00
1999.00	955.00
2000.00	955.00
2001.00	893.00
2002.00	975.00
2003.00	928.00
2004.00	895.00
2005.00	954.00
2006.00	900.00
2007.00	913.00
2008.00	900.00
2009.00	918.00
2010.00	888.00
2011.00	906.00
2012.00	859.00
2013.00	879.00
2014.00	888.00
2015.00	880.00
2016.00	847.00
2017.00	857.00
2018.00	794.00
2019.00	834.00
2020.00	832.00
2021.00	800.00
2022.00	820.00
2023.00	822.00
2024.00	820.00
2025.00	789.00
2026.00	767.00
2027.00	808.00
2028.00	787.00
2029.00	761.00
2030.00	778.00
2031.00	765.00
2032.00	753.00
2033.00	806.00
2034.00	712.00
2035.00	720.00
2036.00	720.00
2037.00	703.00
2038.00	700.00
2039.00	730.00
2040.00	769.00
2041.00	717.00
2042.00	720.00
2043.00	663.00
2044.00	704.00
2045.00	669.00
2046.00	698.00
2047.00	705.00
2048.00	 0.00
