Date:	2023-09-18		
Time:	21:40		
Sample name:	Pellets		
Position:	1419.600011	mm	
Sample surface:	5.955547	cm	
Tube anode:	Mo		
Tube voltage:	30	kV	
Tube current:	50	mA	
Comments	not in position		
Gain	5.810000		
peaking_time	0.300000	m-sec	
trigger_threshold	30.000000	V	
mca_bin_width	2.000000	no:	
number_mca_channels	2048.000000	no:	
gap_time	0.100000	m-sec	
trigger_peaking_time	0.050000	m-sec	
livetime	17.390424	seconds	
runtime	20.000081	seconds	
input_count_rate	117107.320442	cps	
output_count_rate	101826.887601	cps	
triggers	2266857.000000	seconds	
events_in_run	2028750.000000	seconds	
channel	content		
 1.00	 0.00
 2.00	 0.00
 3.00	 0.00
 4.00	 0.00
 5.00	 0.00
 6.00	 0.00
 7.00	 0.00
 8.00	 0.00
 9.00	 0.00
10.00	 0.00
11.00	 0.00
12.00	 0.00
13.00	 0.00
14.00	 0.00
15.00	 0.00
16.00	 0.00
17.00	 0.00
18.00	 0.00
19.00	 0.00
20.00	 0.00
21.00	 0.00
22.00	 0.00
23.00	 0.00
24.00	 0.00
25.00	 0.00
26.00	 0.00
27.00	 0.00
28.00	 0.00
29.00	 0.00
30.00	 0.00
31.00	 2.00
32.00	 1.00
33.00	 2.00
34.00	 4.00
35.00	 5.00
36.00	 8.00
37.00	14.00
38.00	17.00
39.00	22.00
40.00	30.00
41.00	44.00
42.00	60.00
43.00	78.00
44.00	93.00
45.00	126.00
46.00	128.00
47.00	177.00
48.00	186.00
49.00	183.00
50.00	207.00
51.00	199.00
52.00	208.00
53.00	238.00
54.00	271.00
55.00	290.00
56.00	309.00
57.00	293.00
58.00	325.00
59.00	313.00
60.00	310.00
61.00	311.00
62.00	321.00
63.00	321.00
64.00	344.00
65.00	293.00
66.00	332.00
67.00	343.00
68.00	341.00
69.00	305.00
70.00	350.00
71.00	326.00
72.00	349.00
73.00	361.00
74.00	324.00
75.00	348.00
76.00	346.00
77.00	354.00
78.00	327.00
79.00	369.00
80.00	366.00
81.00	357.00
82.00	338.00
83.00	345.00
84.00	334.00
85.00	298.00
86.00	333.00
87.00	339.00
88.00	311.00
89.00	371.00
90.00	362.00
91.00	342.00
92.00	333.00
93.00	294.00
94.00	309.00
95.00	331.00
96.00	306.00
97.00	304.00
98.00	324.00
99.00	324.00
100.00	318.00
101.00	302.00
102.00	293.00
103.00	294.00
104.00	280.00
105.00	298.00
106.00	303.00
107.00	288.00
108.00	271.00
109.00	278.00
110.00	259.00
111.00	295.00
112.00	257.00
113.00	268.00
114.00	278.00
115.00	277.00
116.00	301.00
117.00	311.00
118.00	281.00
119.00	279.00
120.00	274.00
121.00	289.00
122.00	275.00
123.00	249.00
124.00	289.00
125.00	275.00
126.00	232.00
127.00	211.00
128.00	261.00
129.00	238.00
130.00	228.00
131.00	233.00
132.00	235.00
133.00	238.00
134.00	258.00
135.00	241.00
136.00	270.00
137.00	329.00
138.00	369.00
139.00	470.00
140.00	571.00
141.00	785.00
142.00	875.00
143.00	1021.00
144.00	1065.00
145.00	1050.00
146.00	1019.00
147.00	1009.00
148.00	891.00
149.00	720.00
150.00	645.00
151.00	659.00
152.00	586.00
153.00	597.00
154.00	508.00
155.00	483.00
156.00	463.00
157.00	390.00
158.00	404.00
159.00	442.00
160.00	656.00
161.00	1095.00
162.00	1763.00
163.00	2780.00
164.00	3903.00
165.00	5745.00
166.00	7269.00
167.00	8877.00
168.00	9849.00
169.00	10149.00
170.00	9831.00
171.00	8811.00
172.00	7365.00
173.00	5795.00
174.00	4343.00
175.00	3167.00
176.00	2294.00
177.00	1688.00
178.00	1451.00
179.00	1264.00
180.00	1207.00
181.00	1243.00
182.00	1357.00
183.00	1645.00
184.00	2174.00
185.00	2662.00
186.00	3259.00
187.00	3914.00
188.00	4205.00
189.00	4512.00
190.00	4293.00
191.00	3936.00
192.00	3341.00
193.00	2778.00
194.00	2038.00
195.00	1453.00
196.00	1118.00
197.00	767.00
198.00	520.00
199.00	405.00
200.00	397.00
201.00	354.00
202.00	322.00
203.00	292.00
204.00	307.00
205.00	294.00
206.00	268.00
207.00	270.00
208.00	281.00
209.00	315.00
210.00	307.00
211.00	341.00
212.00	364.00
213.00	435.00
214.00	508.00
215.00	507.00
216.00	566.00
217.00	682.00
218.00	717.00
219.00	801.00
220.00	850.00
221.00	834.00
222.00	806.00
223.00	712.00
224.00	627.00
225.00	596.00
226.00	483.00
227.00	456.00
228.00	365.00
229.00	310.00
230.00	283.00
231.00	273.00
232.00	260.00
233.00	271.00
234.00	254.00
235.00	267.00
236.00	266.00
237.00	261.00
238.00	251.00
239.00	239.00
240.00	246.00
241.00	304.00
242.00	241.00
243.00	279.00
244.00	261.00
245.00	245.00
246.00	254.00
247.00	287.00
248.00	251.00
249.00	283.00
250.00	264.00
251.00	258.00
252.00	285.00
253.00	281.00
254.00	297.00
255.00	312.00
256.00	261.00
257.00	279.00
258.00	291.00
259.00	278.00
260.00	269.00
261.00	292.00
262.00	274.00
263.00	285.00
264.00	337.00
265.00	331.00
266.00	336.00
267.00	370.00
268.00	374.00
269.00	369.00
270.00	382.00
271.00	362.00
272.00	336.00
273.00	358.00
274.00	336.00
275.00	370.00
276.00	391.00
277.00	435.00
278.00	553.00
279.00	740.00
280.00	899.00
281.00	1127.00
282.00	1458.00
283.00	1732.00
284.00	2121.00
285.00	2244.00
286.00	2389.00
287.00	2335.00
288.00	2354.00
289.00	2206.00
290.00	1921.00
291.00	1699.00
292.00	1328.00
293.00	1108.00
294.00	872.00
295.00	740.00
296.00	598.00
297.00	526.00
298.00	468.00
299.00	480.00
300.00	462.00
301.00	512.00
302.00	556.00
303.00	591.00
304.00	641.00
305.00	719.00
306.00	781.00
307.00	877.00
308.00	1090.00
309.00	1243.00
310.00	1689.00
311.00	2300.00
312.00	3111.00
313.00	4318.00
314.00	5997.00
315.00	8206.00
316.00	10912.00
317.00	13706.00
318.00	16092.00
319.00	18247.00
320.00	19925.00
321.00	20359.00
322.00	19996.00
323.00	18842.00
324.00	16788.00
325.00	14044.00
326.00	11425.00
327.00	8722.00
328.00	6407.00
329.00	4505.00
330.00	3095.00
331.00	2147.00
332.00	1571.00
333.00	1169.00
334.00	1010.00
335.00	1012.00
336.00	1020.00
337.00	1186.00
338.00	1434.00
339.00	1832.00
340.00	2277.00
341.00	3218.00
342.00	4434.00
343.00	6127.00
344.00	9119.00
345.00	13613.00
346.00	20741.00
347.00	31405.00
348.00	47032.00
349.00	69914.00
350.00	99059.00
351.00	136824.00
352.00	179058.00
353.00	226295.00
354.00	273395.00
355.00	314061.00
356.00	346006.00
357.00	360339.00
358.00	361004.00
359.00	344067.00
360.00	312897.00
361.00	271587.00
362.00	222591.00
363.00	175523.00
364.00	132444.00
365.00	94698.00
366.00	64702.00
367.00	42995.00
368.00	27211.00
369.00	16960.00
370.00	10367.00
371.00	6507.00
372.00	4366.00
373.00	3382.00
374.00	3156.00
375.00	3370.00
376.00	4024.00
377.00	5186.00
378.00	6929.00
379.00	9543.00
380.00	13108.00
381.00	17276.00
382.00	22697.00
383.00	28433.00
384.00	35260.00
385.00	41292.00
386.00	46630.00
387.00	51608.00
388.00	53905.00
389.00	53493.00
390.00	51408.00
391.00	46924.00
392.00	42017.00
393.00	35432.00
394.00	28460.00
395.00	22166.00
396.00	16565.00
397.00	11624.00
398.00	7910.00
399.00	5350.00
400.00	3557.00
401.00	2262.00
402.00	1416.00
403.00	910.00
404.00	630.00
405.00	481.00
406.00	386.00
407.00	326.00
408.00	317.00
409.00	288.00
410.00	298.00
411.00	256.00
412.00	304.00
413.00	310.00
414.00	315.00
415.00	323.00
416.00	313.00
417.00	321.00
418.00	336.00
419.00	377.00
420.00	387.00
421.00	467.00
422.00	528.00
423.00	656.00
424.00	880.00
425.00	1202.00
426.00	1597.00
427.00	2102.00
428.00	2893.00
429.00	3750.00
430.00	4689.00
431.00	5984.00
432.00	7032.00
433.00	7977.00
434.00	8896.00
435.00	9687.00
436.00	9806.00
437.00	9837.00
438.00	9383.00
439.00	8537.00
440.00	7638.00
441.00	6427.00
442.00	5482.00
443.00	4398.00
444.00	3732.00
445.00	3012.00
446.00	2593.00
447.00	2224.00
448.00	2019.00
449.00	1804.00
450.00	1682.00
451.00	1630.00
452.00	1439.00
453.00	1377.00
454.00	1317.00
455.00	1137.00
456.00	1032.00
457.00	929.00
458.00	809.00
459.00	756.00
460.00	776.00
461.00	735.00
462.00	787.00
463.00	808.00
464.00	922.00
465.00	973.00
466.00	1035.00
467.00	1144.00
468.00	1337.00
469.00	1432.00
470.00	1630.00
471.00	1721.00
472.00	1941.00
473.00	2102.00
474.00	2303.00
475.00	2473.00
476.00	2574.00
477.00	2625.00
478.00	2650.00
479.00	2498.00
480.00	2291.00
481.00	2153.00
482.00	1993.00
483.00	1640.00
484.00	1505.00
485.00	1229.00
486.00	1081.00
487.00	941.00
488.00	804.00
489.00	754.00
490.00	653.00
491.00	663.00
492.00	666.00
493.00	610.00
494.00	654.00
495.00	653.00
496.00	671.00
497.00	691.00
498.00	746.00
499.00	686.00
500.00	771.00
501.00	811.00
502.00	804.00
503.00	791.00
504.00	776.00
505.00	835.00
506.00	858.00
507.00	876.00
508.00	947.00
509.00	940.00
510.00	996.00
511.00	978.00
512.00	1070.00
513.00	1089.00
514.00	1140.00
515.00	1174.00
516.00	1234.00
517.00	1311.00
518.00	1369.00
519.00	1433.00
520.00	1553.00
521.00	1611.00
522.00	1538.00
523.00	1713.00
524.00	1622.00
525.00	1560.00
526.00	1573.00
527.00	1513.00
528.00	1401.00
529.00	1352.00
530.00	1320.00
531.00	1253.00
532.00	1209.00
533.00	1142.00
534.00	1124.00
535.00	1094.00
536.00	1104.00
537.00	1121.00
538.00	1178.00
539.00	1138.00
540.00	1129.00
541.00	1190.00
542.00	1213.00
543.00	1197.00
544.00	1311.00
545.00	1259.00
546.00	1239.00
547.00	1280.00
548.00	1222.00
549.00	1316.00
550.00	1339.00
551.00	1343.00
552.00	1331.00
553.00	1497.00
554.00	1559.00
555.00	1647.00
556.00	1713.00
557.00	2030.00
558.00	2427.00
559.00	2865.00
560.00	3444.00
561.00	4094.00
562.00	5048.00
563.00	5783.00
564.00	7000.00
565.00	7955.00
566.00	9027.00
567.00	9744.00
568.00	10705.00
569.00	11127.00
570.00	11121.00
571.00	10779.00
572.00	10283.00
573.00	9268.00
574.00	8446.00
575.00	7600.00
576.00	6383.00
577.00	5422.00
578.00	4476.00
579.00	3574.00
580.00	3015.00
581.00	2464.00
582.00	2096.00
583.00	1894.00
584.00	1610.00
585.00	1545.00
586.00	1522.00
587.00	1460.00
588.00	1482.00
589.00	1557.00
590.00	1587.00
591.00	1635.00
592.00	1635.00
593.00	1700.00
594.00	1873.00
595.00	2088.00
596.00	2296.00
597.00	2430.00
598.00	2997.00
599.00	3487.00
600.00	4508.00
601.00	5853.00
602.00	8038.00
603.00	11416.00
604.00	16082.00
605.00	22857.00
606.00	32121.00
607.00	44725.00
608.00	60413.00
609.00	80411.00
610.00	104299.00
611.00	131174.00
612.00	161152.00
613.00	191118.00
614.00	221833.00
615.00	249049.00
616.00	272696.00
617.00	288011.00
618.00	295860.00
619.00	294523.00
620.00	285013.00
621.00	267634.00
622.00	242954.00
623.00	214376.00
624.00	184555.00
625.00	152942.00
626.00	123969.00
627.00	97742.00
628.00	74586.00
629.00	55824.00
630.00	40686.00
631.00	29323.00
632.00	20821.00
633.00	14638.00
634.00	10373.00
635.00	7273.00
636.00	5597.00
637.00	4535.00
638.00	3636.00
639.00	3079.00
640.00	2851.00
641.00	2617.00
642.00	2535.00
643.00	2489.00
644.00	2504.00
645.00	2542.00
646.00	2538.00
647.00	2542.00
648.00	2583.00
649.00	2575.00
650.00	2581.00
651.00	2666.00
652.00	2722.00
653.00	2806.00
654.00	2851.00
655.00	2914.00
656.00	3107.00
657.00	3143.00
658.00	3184.00
659.00	3346.00
660.00	3555.00
661.00	3774.00
662.00	3859.00
663.00	4184.00
664.00	4561.00
665.00	4949.00
666.00	5851.00
667.00	6785.00
668.00	8013.00
669.00	9517.00
670.00	11729.00
671.00	14272.00
672.00	17034.00
673.00	20615.00
674.00	24586.00
675.00	29135.00
676.00	33698.00
677.00	37209.00
678.00	41425.00
679.00	44555.00
680.00	46491.00
681.00	47827.00
682.00	47888.00
683.00	46334.00
684.00	44168.00
685.00	40642.00
686.00	36586.00
687.00	32351.00
688.00	27763.00
689.00	23534.00
690.00	19291.00
691.00	15452.00
692.00	12359.00
693.00	9663.00
694.00	7736.00
695.00	6074.00
696.00	5010.00
697.00	4098.00
698.00	3438.00
699.00	3048.00
700.00	2872.00
701.00	2676.00
702.00	2644.00
703.00	2750.00
704.00	2682.00
705.00	2795.00
706.00	2823.00
707.00	2947.00
708.00	2925.00
709.00	3209.00
710.00	3298.00
711.00	3549.00
712.00	3606.00
713.00	3572.00
714.00	3756.00
715.00	3885.00
716.00	3914.00
717.00	4193.00
718.00	4122.00
719.00	4148.00
720.00	4145.00
721.00	4295.00
722.00	4123.00
723.00	4034.00
724.00	3968.00
725.00	3967.00
726.00	3808.00
727.00	3547.00
728.00	3430.00
729.00	3307.00
730.00	3210.00
731.00	3061.00
732.00	3041.00
733.00	2874.00
734.00	2853.00
735.00	2805.00
736.00	2793.00
737.00	2749.00
738.00	2793.00
739.00	2658.00
740.00	2724.00
741.00	2588.00
742.00	2712.00
743.00	2684.00
744.00	2590.00
745.00	2583.00
746.00	2709.00
747.00	2569.00
748.00	2622.00
749.00	2582.00
750.00	2653.00
751.00	2643.00
752.00	2712.00
753.00	2656.00
754.00	2674.00
755.00	2672.00
756.00	2658.00
757.00	2708.00
758.00	2711.00
759.00	2835.00
760.00	2775.00
761.00	2831.00
762.00	2859.00
763.00	3012.00
764.00	3004.00
765.00	3090.00
766.00	3133.00
767.00	3272.00
768.00	3417.00
769.00	3484.00
770.00	3562.00
771.00	3573.00
772.00	3971.00
773.00	3892.00
774.00	4071.00
775.00	4143.00
776.00	4175.00
777.00	4270.00
778.00	4275.00
779.00	4125.00
780.00	4282.00
781.00	4103.00
782.00	4173.00
783.00	4013.00
784.00	3952.00
785.00	4011.00
786.00	3953.00
787.00	3946.00
788.00	3937.00
789.00	3851.00
790.00	3749.00
791.00	3923.00
792.00	3930.00
793.00	4090.00
794.00	4098.00
795.00	4029.00
796.00	4208.00
797.00	4148.00
798.00	4101.00
799.00	4217.00
800.00	4303.00
801.00	4439.00
802.00	4485.00
803.00	4361.00
804.00	4464.00
805.00	4591.00
806.00	4559.00
807.00	4607.00
808.00	4730.00
809.00	4693.00
810.00	4664.00
811.00	4730.00
812.00	4624.00
813.00	4745.00
814.00	4638.00
815.00	4511.00
816.00	4676.00
817.00	4742.00
818.00	4744.00
819.00	4654.00
820.00	4808.00
821.00	4789.00
822.00	4940.00
823.00	5153.00
824.00	5216.00
825.00	5448.00
826.00	5534.00
827.00	5654.00
828.00	5956.00
829.00	6069.00
830.00	6188.00
831.00	6441.00
832.00	6499.00
833.00	6453.00
834.00	6330.00
835.00	6576.00
836.00	6350.00
837.00	6234.00
838.00	6048.00
839.00	5930.00
840.00	5751.00
841.00	5525.00
842.00	5378.00
843.00	5205.00
844.00	5155.00
845.00	4900.00
846.00	4900.00
847.00	4741.00
848.00	4726.00
849.00	4633.00
850.00	4727.00
851.00	4715.00
852.00	4596.00
853.00	4711.00
854.00	4689.00
855.00	4753.00
856.00	4662.00
857.00	4631.00
858.00	4595.00
859.00	4641.00
860.00	4743.00
861.00	4752.00
862.00	4729.00
863.00	4632.00
864.00	4786.00
865.00	4590.00
866.00	4598.00
867.00	4542.00
868.00	4645.00
869.00	4474.00
870.00	4754.00
871.00	4624.00
872.00	4554.00
873.00	4570.00
874.00	4630.00
875.00	4747.00
876.00	4612.00
877.00	4735.00
878.00	4770.00
879.00	4618.00
880.00	4885.00
881.00	4871.00
882.00	4916.00
883.00	4886.00
884.00	4980.00
885.00	5032.00
886.00	5098.00
887.00	5263.00
888.00	5235.00
889.00	5133.00
890.00	5186.00
891.00	5363.00
892.00	5479.00
893.00	5392.00
894.00	5404.00
895.00	5419.00
896.00	5335.00
897.00	5429.00
898.00	5321.00
899.00	5392.00
900.00	5360.00
901.00	5359.00
902.00	5331.00
903.00	5274.00
904.00	5394.00
905.00	5326.00
906.00	5376.00
907.00	5308.00
908.00	5320.00
909.00	5342.00
910.00	5320.00
911.00	5543.00
912.00	5669.00
913.00	5517.00
914.00	5658.00
915.00	5616.00
916.00	5629.00
917.00	5835.00
918.00	5847.00
919.00	5921.00
920.00	5849.00
921.00	5945.00
922.00	5950.00
923.00	5992.00
924.00	6049.00
925.00	6072.00
926.00	6144.00
927.00	6015.00
928.00	6182.00
929.00	5991.00
930.00	5962.00
931.00	6084.00
932.00	5988.00
933.00	5992.00
934.00	6072.00
935.00	5823.00
936.00	5948.00
937.00	5948.00
938.00	5874.00
939.00	5905.00
940.00	5972.00
941.00	5709.00
942.00	5795.00
943.00	5701.00
944.00	5677.00
945.00	5728.00
946.00	5754.00
947.00	5671.00
948.00	5758.00
949.00	5617.00
950.00	5699.00
951.00	5821.00
952.00	5948.00
953.00	5776.00
954.00	5835.00
955.00	5783.00
956.00	5684.00
957.00	5923.00
958.00	5936.00
959.00	5914.00
960.00	6044.00
961.00	6011.00
962.00	6069.00
963.00	6175.00
964.00	6182.00
965.00	6432.00
966.00	6321.00
967.00	6428.00
968.00	6462.00
969.00	6479.00
970.00	6570.00
971.00	6669.00
972.00	6700.00
973.00	6565.00
974.00	6662.00
975.00	6683.00
976.00	6749.00
977.00	6470.00
978.00	6404.00
979.00	6467.00
980.00	6423.00
981.00	6382.00
982.00	6296.00
983.00	6280.00
984.00	6177.00
985.00	6070.00
986.00	5997.00
987.00	6108.00
988.00	5962.00
989.00	6134.00
990.00	6172.00
991.00	6167.00
992.00	5849.00
993.00	5978.00
994.00	5944.00
995.00	5988.00
996.00	6141.00
997.00	5961.00
998.00	5954.00
999.00	5980.00
1000.00	6097.00
1001.00	6102.00
1002.00	5940.00
1003.00	6244.00
1004.00	6191.00
1005.00	6097.00
1006.00	6099.00
1007.00	6150.00
1008.00	6069.00
1009.00	6180.00
1010.00	6319.00
1011.00	6338.00
1012.00	6333.00
1013.00	6331.00
1014.00	6418.00
1015.00	6382.00
1016.00	6350.00
1017.00	6377.00
1018.00	6448.00
1019.00	6429.00
1020.00	6487.00
1021.00	6325.00
1022.00	6215.00
1023.00	6203.00
1024.00	6171.00
1025.00	6286.00
1026.00	6189.00
1027.00	6200.00
1028.00	6206.00
1029.00	6287.00
1030.00	6045.00
1031.00	6039.00
1032.00	6315.00
1033.00	6327.00
1034.00	6108.00
1035.00	6107.00
1036.00	6229.00
1037.00	6206.00
1038.00	6187.00
1039.00	6364.00
1040.00	6366.00
1041.00	6356.00
1042.00	6129.00
1043.00	6221.00
1044.00	6355.00
1045.00	6262.00
1046.00	6413.00
1047.00	6186.00
1048.00	6280.00
1049.00	6364.00
1050.00	6244.00
1051.00	6286.00
1052.00	6400.00
1053.00	6171.00
1054.00	6314.00
1055.00	6337.00
1056.00	6272.00
1057.00	6275.00
1058.00	6251.00
1059.00	6174.00
1060.00	6284.00
1061.00	6299.00
1062.00	6198.00
1063.00	6394.00
1064.00	6286.00
1065.00	6238.00
1066.00	6425.00
1067.00	6360.00
1068.00	6349.00
1069.00	6324.00
1070.00	6237.00
1071.00	6386.00
1072.00	6323.00
1073.00	6318.00
1074.00	6583.00
1075.00	6427.00
1076.00	6465.00
1077.00	6587.00
1078.00	6435.00
1079.00	6296.00
1080.00	6464.00
1081.00	6345.00
1082.00	6518.00
1083.00	6420.00
1084.00	6501.00
1085.00	6428.00
1086.00	6619.00
1087.00	6377.00
1088.00	6508.00
1089.00	6579.00
1090.00	6637.00
1091.00	6476.00
1092.00	6487.00
1093.00	6511.00
1094.00	6541.00
1095.00	6578.00
1096.00	6537.00
1097.00	6582.00
1098.00	6548.00
1099.00	6570.00
1100.00	6575.00
1101.00	6625.00
1102.00	6499.00
1103.00	6626.00
1104.00	6629.00
1105.00	6517.00
1106.00	6760.00
1107.00	6707.00
1108.00	6741.00
1109.00	6581.00
1110.00	6736.00
1111.00	6672.00
1112.00	6750.00
1113.00	6511.00
1114.00	6518.00
1115.00	6584.00
1116.00	6776.00
1117.00	6567.00
1118.00	6615.00
1119.00	6847.00
1120.00	6742.00
1121.00	6789.00
1122.00	6559.00
1123.00	6740.00
1124.00	6820.00
1125.00	6635.00
1126.00	6619.00
1127.00	6720.00
1128.00	6672.00
1129.00	6600.00
1130.00	6612.00
1131.00	6644.00
1132.00	6650.00
1133.00	6678.00
1134.00	6685.00
1135.00	6792.00
1136.00	6758.00
1137.00	6694.00
1138.00	6716.00
1139.00	6594.00
1140.00	6746.00
1141.00	6741.00
1142.00	6698.00
1143.00	6756.00
1144.00	6637.00
1145.00	6707.00
1146.00	6645.00
1147.00	6735.00
1148.00	6642.00
1149.00	6701.00
1150.00	6719.00
1151.00	6741.00
1152.00	6497.00
1153.00	6692.00
1154.00	6558.00
1155.00	6461.00
1156.00	6533.00
1157.00	6589.00
1158.00	6664.00
1159.00	6616.00
1160.00	6492.00
1161.00	6684.00
1162.00	6456.00
1163.00	6513.00
1164.00	6441.00
1165.00	6518.00
1166.00	6398.00
1167.00	6363.00
1168.00	6623.00
1169.00	6484.00
1170.00	6663.00
1171.00	6492.00
1172.00	6538.00
1173.00	6523.00
1174.00	6629.00
1175.00	6618.00
1176.00	6539.00
1177.00	6527.00
1178.00	6667.00
1179.00	6771.00
1180.00	6707.00
1181.00	6701.00
1182.00	6771.00
1183.00	6578.00
1184.00	6718.00
1185.00	6652.00
1186.00	6611.00
1187.00	6609.00
1188.00	6783.00
1189.00	6623.00
1190.00	6656.00
1191.00	6671.00
1192.00	6628.00
1193.00	6589.00
1194.00	6663.00
1195.00	6758.00
1196.00	6760.00
1197.00	6788.00
1198.00	6683.00
1199.00	6696.00
1200.00	6578.00
1201.00	6690.00
1202.00	6785.00
1203.00	6759.00
1204.00	6770.00
1205.00	6847.00
1206.00	6900.00
1207.00	6788.00
1208.00	6805.00
1209.00	6942.00
1210.00	6910.00
1211.00	7115.00
1212.00	6849.00
1213.00	6827.00
1214.00	6823.00
1215.00	6869.00
1216.00	6874.00
1217.00	6923.00
1218.00	7064.00
1219.00	7051.00
1220.00	6951.00
1221.00	7061.00
1222.00	6858.00
1223.00	7054.00
1224.00	6992.00
1225.00	7130.00
1226.00	7079.00
1227.00	7086.00
1228.00	7023.00
1229.00	7000.00
1230.00	6926.00
1231.00	7155.00
1232.00	6910.00
1233.00	7073.00
1234.00	7098.00
1235.00	7033.00
1236.00	7033.00
1237.00	7033.00
1238.00	6884.00
1239.00	6982.00
1240.00	6989.00
1241.00	6725.00
1242.00	6862.00
1243.00	6902.00
1244.00	6564.00
1245.00	6782.00
1246.00	6721.00
1247.00	6744.00
1248.00	6733.00
1249.00	6494.00
1250.00	6768.00
1251.00	6546.00
1252.00	6470.00
1253.00	6603.00
1254.00	6638.00
1255.00	6604.00
1256.00	6470.00
1257.00	6675.00
1258.00	6464.00
1259.00	6573.00
1260.00	6593.00
1261.00	6488.00
1262.00	6581.00
1263.00	6539.00
1264.00	6444.00
1265.00	6502.00
1266.00	6576.00
1267.00	6652.00
1268.00	6580.00
1269.00	6798.00
1270.00	6579.00
1271.00	6637.00
1272.00	6525.00
1273.00	6510.00
1274.00	6720.00
1275.00	6775.00
1276.00	6830.00
1277.00	6923.00
1278.00	6777.00
1279.00	7089.00
1280.00	6973.00
1281.00	7046.00
1282.00	7162.00
1283.00	7066.00
1284.00	7222.00
1285.00	7249.00
1286.00	7416.00
1287.00	7552.00
1288.00	7618.00
1289.00	7586.00
1290.00	7585.00
1291.00	7484.00
1292.00	7599.00
1293.00	7519.00
1294.00	7473.00
1295.00	7402.00
1296.00	7313.00
1297.00	7106.00
1298.00	7191.00
1299.00	7041.00
1300.00	7073.00
1301.00	7068.00
1302.00	6859.00
1303.00	6813.00
1304.00	6782.00
1305.00	6861.00
1306.00	6523.00
1307.00	6690.00
1308.00	6529.00
1309.00	6531.00
1310.00	6448.00
1311.00	6581.00
1312.00	6480.00
1313.00	6298.00
1314.00	6550.00
1315.00	6498.00
1316.00	6462.00
1317.00	6233.00
1318.00	6283.00
1319.00	6417.00
1320.00	6380.00
1321.00	6292.00
1322.00	6160.00
1323.00	6467.00
1324.00	6268.00
1325.00	6278.00
1326.00	6329.00
1327.00	6239.00
1328.00	6271.00
1329.00	6418.00
1330.00	6502.00
1331.00	6460.00
1332.00	6424.00
1333.00	6224.00
1334.00	6485.00
1335.00	6107.00
1336.00	6426.00
1337.00	6257.00
1338.00	6402.00
1339.00	6420.00
1340.00	6360.00
1341.00	6565.00
1342.00	6606.00
1343.00	6701.00
1344.00	6808.00
1345.00	6911.00
1346.00	7198.00
1347.00	7284.00
1348.00	7416.00
1349.00	7629.00
1350.00	8049.00
1351.00	8252.00
1352.00	8658.00
1353.00	8965.00
1354.00	9376.00
1355.00	9813.00
1356.00	10299.00
1357.00	10667.00
1358.00	11117.00
1359.00	11446.00
1360.00	11600.00
1361.00	11847.00
1362.00	12028.00
1363.00	12159.00
1364.00	12236.00
1365.00	12338.00
1366.00	12123.00
1367.00	12105.00
1368.00	11527.00
1369.00	11068.00
1370.00	10841.00
1371.00	10786.00
1372.00	10075.00
1373.00	9763.00
1374.00	9186.00
1375.00	8699.00
1376.00	8205.00
1377.00	7989.00
1378.00	7670.00
1379.00	7277.00
1380.00	7034.00
1381.00	6738.00
1382.00	6443.00
1383.00	6471.00
1384.00	6415.00
1385.00	6155.00
1386.00	5938.00
1387.00	5995.00
1388.00	5904.00
1389.00	5896.00
1390.00	5708.00
1391.00	5763.00
1392.00	5910.00
1393.00	5930.00
1394.00	5867.00
1395.00	5659.00
1396.00	5720.00
1397.00	5686.00
1398.00	5897.00
1399.00	5785.00
1400.00	5763.00
1401.00	5813.00
1402.00	5701.00
1403.00	5680.00
1404.00	5775.00
1405.00	5703.00
1406.00	5665.00
1407.00	5771.00
1408.00	5640.00
1409.00	5688.00
1410.00	5581.00
1411.00	5742.00
1412.00	5559.00
1413.00	5668.00
1414.00	5697.00
1415.00	5643.00
1416.00	5640.00
1417.00	5490.00
1418.00	5551.00
1419.00	5665.00
1420.00	5726.00
1421.00	5665.00
1422.00	5771.00
1423.00	5642.00
1424.00	5755.00
1425.00	5769.00
1426.00	5536.00
1427.00	5660.00
1428.00	5713.00
1429.00	5728.00
1430.00	5687.00
1431.00	5797.00
1432.00	5679.00
1433.00	5841.00
1434.00	5860.00
1435.00	5986.00
1436.00	5858.00
1437.00	5991.00
1438.00	5955.00
1439.00	5835.00
1440.00	6015.00
1441.00	5881.00
1442.00	5852.00
1443.00	5897.00
1444.00	6035.00
1445.00	5874.00
1446.00	5953.00
1447.00	5829.00
1448.00	5688.00
1449.00	5749.00
1450.00	5630.00
1451.00	5852.00
1452.00	5599.00
1453.00	5813.00
1454.00	5594.00
1455.00	5638.00
1456.00	5597.00
1457.00	5475.00
1458.00	5480.00
1459.00	5415.00
1460.00	5436.00
1461.00	5515.00
1462.00	5509.00
1463.00	5551.00
1464.00	5568.00
1465.00	5597.00
1466.00	5388.00
1467.00	5413.00
1468.00	5510.00
1469.00	5395.00
1470.00	5389.00
1471.00	5475.00
1472.00	5361.00
1473.00	5450.00
1474.00	5269.00
1475.00	5332.00
1476.00	5464.00
1477.00	5389.00
1478.00	5304.00
1479.00	5348.00
1480.00	5350.00
1481.00	5373.00
1482.00	5389.00
1483.00	5243.00
1484.00	5328.00
1485.00	5317.00
1486.00	5404.00
1487.00	5425.00
1488.00	5376.00
1489.00	5333.00
1490.00	5386.00
1491.00	5347.00
1492.00	5206.00
1493.00	5255.00
1494.00	5385.00
1495.00	5303.00
1496.00	5343.00
1497.00	5447.00
1498.00	5327.00
1499.00	5414.00
1500.00	5427.00
1501.00	5347.00
1502.00	5467.00
1503.00	5577.00
1504.00	5504.00
1505.00	5554.00
1506.00	5731.00
1507.00	5717.00
1508.00	5773.00
1509.00	5849.00
1510.00	6017.00
1511.00	5965.00
1512.00	6064.00
1513.00	6283.00
1514.00	6264.00
1515.00	6291.00
1516.00	6379.00
1517.00	6412.00
1518.00	6328.00
1519.00	6835.00
1520.00	6784.00
1521.00	6754.00
1522.00	6843.00
1523.00	6948.00
1524.00	6700.00
1525.00	6818.00
1526.00	6882.00
1527.00	6860.00
1528.00	6667.00
1529.00	6701.00
1530.00	6689.00
1531.00	6637.00
1532.00	6471.00
1533.00	6478.00
1534.00	6385.00
1535.00	6103.00
1536.00	6193.00
1537.00	6104.00
1538.00	6036.00
1539.00	5983.00
1540.00	6143.00
1541.00	5902.00
1542.00	5891.00
1543.00	5825.00
1544.00	5977.00
1545.00	5967.00
1546.00	5810.00
1547.00	5934.00
1548.00	5966.00
1549.00	6115.00
1550.00	6152.00
1551.00	6143.00
1552.00	6233.00
1553.00	6258.00
1554.00	6334.00
1555.00	6205.00
1556.00	6299.00
1557.00	6457.00
1558.00	6595.00
1559.00	6740.00
1560.00	6657.00
1561.00	6682.00
1562.00	6874.00
1563.00	7032.00
1564.00	6975.00
1565.00	7151.00
1566.00	7155.00
1567.00	7417.00
1568.00	7383.00
1569.00	7624.00
1570.00	7762.00
1571.00	7856.00
1572.00	7852.00
1573.00	8044.00
1574.00	8142.00
1575.00	7979.00
1576.00	8312.00
1577.00	8371.00
1578.00	8477.00
1579.00	8384.00
1580.00	8570.00
1581.00	8656.00
1582.00	8764.00
1583.00	8835.00
1584.00	8956.00
1585.00	8943.00
1586.00	8965.00
1587.00	8896.00
1588.00	9110.00
1589.00	8755.00
1590.00	8903.00
1591.00	8829.00
1592.00	8986.00
1593.00	8982.00
1594.00	8877.00
1595.00	8830.00
1596.00	8696.00
1597.00	8645.00
1598.00	8534.00
1599.00	8559.00
1600.00	8536.00
1601.00	8410.00
1602.00	8370.00
1603.00	8121.00
1604.00	8032.00
1605.00	8025.00
1606.00	7989.00
1607.00	7617.00
1608.00	7749.00
1609.00	7402.00
1610.00	7317.00
1611.00	7205.00
1612.00	7090.00
1613.00	6985.00
1614.00	6871.00
1615.00	6787.00
1616.00	6686.00
1617.00	6620.00
1618.00	6445.00
1619.00	6171.00
1620.00	6234.00
1621.00	6061.00
1622.00	5997.00
1623.00	5789.00
1624.00	5773.00
1625.00	5537.00
1626.00	5624.00
1627.00	5363.00
1628.00	5316.00
1629.00	5321.00
1630.00	5246.00
1631.00	5028.00
1632.00	4987.00
1633.00	4972.00
1634.00	4987.00
1635.00	4887.00
1636.00	4811.00
1637.00	4910.00
1638.00	4740.00
1639.00	4703.00
1640.00	4770.00
1641.00	4633.00
1642.00	4588.00
1643.00	4476.00
1644.00	4483.00
1645.00	4475.00
1646.00	4430.00
1647.00	4403.00
1648.00	4380.00
1649.00	4251.00
1650.00	4447.00
1651.00	4383.00
1652.00	4295.00
1653.00	4362.00
1654.00	4311.00
1655.00	4200.00
1656.00	4420.00
1657.00	4440.00
1658.00	4494.00
1659.00	4426.00
1660.00	4523.00
1661.00	4677.00
1662.00	4734.00
1663.00	4989.00
1664.00	5072.00
1665.00	5251.00
1666.00	5594.00
1667.00	5598.00
1668.00	5916.00
1669.00	6234.00
1670.00	6458.00
1671.00	6580.00
1672.00	6739.00
1673.00	7078.00
1674.00	7452.00
1675.00	7817.00
1676.00	7828.00
1677.00	8003.00
1678.00	8264.00
1679.00	8616.00
1680.00	8459.00
1681.00	8481.00
1682.00	8534.00
1683.00	8476.00
1684.00	8349.00
1685.00	8286.00
1686.00	8187.00
1687.00	8300.00
1688.00	7718.00
1689.00	7559.00
1690.00	7252.00
1691.00	6876.00
1692.00	6674.00
1693.00	6373.00
1694.00	6013.00
1695.00	5818.00
1696.00	5572.00
1697.00	5249.00
1698.00	4990.00
1699.00	4581.00
1700.00	4587.00
1701.00	4361.00
1702.00	4162.00
1703.00	4034.00
1704.00	3797.00
1705.00	3751.00
1706.00	3746.00
1707.00	3722.00
1708.00	3421.00
1709.00	3669.00
1710.00	3471.00
1711.00	3445.00
1712.00	3470.00
1713.00	3465.00
1714.00	3321.00
1715.00	3376.00
1716.00	3350.00
1717.00	3251.00
1718.00	3330.00
1719.00	3271.00
1720.00	3291.00
1721.00	3256.00
1722.00	3313.00
1723.00	3270.00
1724.00	3336.00
1725.00	3270.00
1726.00	3310.00
1727.00	3317.00
1728.00	3286.00
1729.00	3343.00
1730.00	3309.00
1731.00	3346.00
1732.00	3281.00
1733.00	3344.00
1734.00	3243.00
1735.00	3264.00
1736.00	3332.00
1737.00	3198.00
1738.00	3263.00
1739.00	3219.00
1740.00	3299.00
1741.00	3302.00
1742.00	3245.00
1743.00	3294.00
1744.00	3253.00
1745.00	3339.00
1746.00	3301.00
1747.00	3225.00
1748.00	3244.00
1749.00	3285.00
1750.00	3328.00
1751.00	3320.00
1752.00	3308.00
1753.00	3366.00
1754.00	3408.00
1755.00	3446.00
1756.00	3344.00
1757.00	3274.00
1758.00	3458.00
1759.00	3379.00
1760.00	3340.00
1761.00	3397.00
1762.00	3356.00
1763.00	3463.00
1764.00	3437.00
1765.00	3312.00
1766.00	3462.00
1767.00	3327.00
1768.00	3512.00
1769.00	3398.00
1770.00	3365.00
1771.00	3305.00
1772.00	3418.00
1773.00	3436.00
1774.00	3389.00
1775.00	3382.00
1776.00	3327.00
1777.00	3342.00
1778.00	3339.00
1779.00	3236.00
1780.00	3236.00
1781.00	3275.00
1782.00	3356.00
1783.00	3117.00
1784.00	3149.00
1785.00	3250.00
1786.00	3240.00
1787.00	3116.00
1788.00	3103.00
1789.00	3195.00
1790.00	3169.00
1791.00	3078.00
1792.00	3041.00
1793.00	3045.00
1794.00	3084.00
1795.00	2956.00
1796.00	2928.00
1797.00	2911.00
1798.00	2913.00
1799.00	2888.00
1800.00	2846.00
1801.00	2801.00
1802.00	2793.00
1803.00	2803.00
1804.00	2729.00
1805.00	2687.00
1806.00	2688.00
1807.00	2556.00
1808.00	2559.00
1809.00	2645.00
1810.00	2543.00
1811.00	2440.00
1812.00	2513.00
1813.00	2549.00
1814.00	2501.00
1815.00	2299.00
1816.00	2329.00
1817.00	2454.00
1818.00	2341.00
1819.00	2282.00
1820.00	2190.00
1821.00	2311.00
1822.00	2309.00
1823.00	2218.00
1824.00	2266.00
1825.00	2263.00
1826.00	2175.00
1827.00	2214.00
1828.00	2078.00
1829.00	2199.00
1830.00	2153.00
1831.00	2076.00
1832.00	2048.00
1833.00	1993.00
1834.00	1964.00
1835.00	2078.00
1836.00	2048.00
1837.00	2083.00
1838.00	1911.00
1839.00	1977.00
1840.00	1962.00
1841.00	1921.00
1842.00	1918.00
1843.00	1948.00
1844.00	1912.00
1845.00	1785.00
1846.00	1867.00
1847.00	1902.00
1848.00	1796.00
1849.00	1879.00
1850.00	1893.00
1851.00	1826.00
1852.00	1815.00
1853.00	1799.00
1854.00	1769.00
1855.00	1763.00
1856.00	1753.00
1857.00	1870.00
1858.00	1741.00
1859.00	1775.00
1860.00	1765.00
1861.00	1800.00
1862.00	1805.00
1863.00	1810.00
1864.00	1758.00
1865.00	1741.00
1866.00	1688.00
1867.00	1712.00
1868.00	1731.00
1869.00	1756.00
1870.00	1635.00
1871.00	1777.00
1872.00	1718.00
1873.00	1777.00
1874.00	1747.00
1875.00	1849.00
1876.00	1872.00
1877.00	1930.00
1878.00	1917.00
1879.00	1931.00
1880.00	1896.00
1881.00	1920.00
1882.00	2027.00
1883.00	2052.00
1884.00	2145.00
1885.00	2178.00
1886.00	2151.00
1887.00	2167.00
1888.00	2158.00
1889.00	2060.00
1890.00	2138.00
1891.00	2159.00
1892.00	2075.00
1893.00	2129.00
1894.00	2142.00
1895.00	1949.00
1896.00	1995.00
1897.00	1911.00
1898.00	1901.00
1899.00	1819.00
1900.00	1813.00
1901.00	1735.00
1902.00	1708.00
1903.00	1683.00
1904.00	1608.00
1905.00	1677.00
1906.00	1599.00
1907.00	1573.00
1908.00	1499.00
1909.00	1545.00
1910.00	1526.00
1911.00	1419.00
1912.00	1494.00
1913.00	1499.00
1914.00	1469.00
1915.00	1424.00
1916.00	1410.00
1917.00	1437.00
1918.00	1400.00
1919.00	1381.00
1920.00	1395.00
1921.00	1391.00
1922.00	1409.00
1923.00	1401.00
1924.00	1409.00
1925.00	1337.00
1926.00	1400.00
1927.00	1325.00
1928.00	1403.00
1929.00	1388.00
1930.00	1324.00
1931.00	1324.00
1932.00	1270.00
1933.00	1285.00
1934.00	1254.00
1935.00	1201.00
1936.00	1224.00
1937.00	1315.00
1938.00	1124.00
1939.00	1133.00
1940.00	1194.00
1941.00	1112.00
1942.00	1147.00
1943.00	1153.00
1944.00	1205.00
1945.00	1114.00
1946.00	1147.00
1947.00	1122.00
1948.00	1090.00
1949.00	1086.00
1950.00	1093.00
1951.00	1092.00
1952.00	1151.00
1953.00	1062.00
1954.00	1083.00
1955.00	1073.00
1956.00	1067.00
1957.00	1136.00
1958.00	1053.00
1959.00	1025.00
1960.00	1075.00
1961.00	1051.00
1962.00	986.00
1963.00	1051.00
1964.00	1086.00
1965.00	1022.00
1966.00	1008.00
1967.00	1049.00
1968.00	1046.00
1969.00	1033.00
1970.00	1021.00
1971.00	943.00
1972.00	985.00
1973.00	1043.00
1974.00	949.00
1975.00	979.00
1976.00	955.00
1977.00	957.00
1978.00	961.00
1979.00	934.00
1980.00	993.00
1981.00	972.00
1982.00	961.00
1983.00	900.00
1984.00	885.00
1985.00	941.00
1986.00	919.00
1987.00	891.00
1988.00	881.00
1989.00	927.00
1990.00	890.00
1991.00	916.00
1992.00	830.00
1993.00	905.00
1994.00	906.00
1995.00	895.00
1996.00	860.00
1997.00	853.00
1998.00	849.00
1999.00	888.00
2000.00	888.00
2001.00	826.00
2002.00	838.00
2003.00	840.00
2004.00	873.00
2005.00	814.00
2006.00	772.00
2007.00	812.00
2008.00	844.00
2009.00	815.00
2010.00	800.00
2011.00	801.00
2012.00	835.00
2013.00	794.00
2014.00	812.00
2015.00	752.00
2016.00	794.00
2017.00	813.00
2018.00	756.00
2019.00	745.00
2020.00	762.00
2021.00	789.00
2022.00	781.00
2023.00	788.00
2024.00	774.00
2025.00	715.00
2026.00	729.00
2027.00	771.00
2028.00	715.00
2029.00	706.00
2030.00	702.00
2031.00	715.00
2032.00	703.00
2033.00	666.00
2034.00	691.00
2035.00	685.00
2036.00	669.00
2037.00	662.00
2038.00	718.00
2039.00	667.00
2040.00	711.00
2041.00	628.00
2042.00	654.00
2043.00	673.00
2044.00	645.00
2045.00	696.00
2046.00	662.00
2047.00	630.00
2048.00	 0.00
