Date:	2023-09-18		
Time:	22:11		
Sample name:	Pellets		
Position:	1721.600011	mm	
Sample surface:	5.989962	cm	
Tube anode:	Mo		
Tube voltage:	30	kV	
Tube current:	50	mA	
Comments	not in position		
Gain	5.810000		
peaking_time	0.300000	m-sec	
trigger_threshold	30.000000	V	
mca_bin_width	2.000000	no:	
number_mca_channels	2048.000000	no:	
gap_time	0.100000	m-sec	
trigger_peaking_time	0.050000	m-sec	
livetime	17.188174	seconds	
runtime	20.000266	seconds	
input_count_rate	129665.376610	cps	
output_count_rate	111434.067927	cps	
triggers	2499015.000000	seconds	
events_in_run	2219721.000000	seconds	
channel	content		
 1.00	 0.00
 2.00	 0.00
 3.00	 0.00
 4.00	 0.00
 5.00	 0.00
 6.00	 0.00
 7.00	 0.00
 8.00	 0.00
 9.00	 0.00
10.00	 0.00
11.00	 0.00
12.00	 0.00
13.00	 0.00
14.00	 0.00
15.00	 0.00
16.00	 0.00
17.00	 0.00
18.00	 0.00
19.00	 0.00
20.00	 0.00
21.00	 0.00
22.00	 0.00
23.00	 0.00
24.00	 0.00
25.00	 0.00
26.00	 0.00
27.00	 0.00
28.00	 0.00
29.00	 0.00
30.00	 0.00
31.00	 1.00
32.00	 3.00
33.00	 0.00
34.00	 4.00
35.00	 7.00
36.00	 6.00
37.00	17.00
38.00	18.00
39.00	25.00
40.00	26.00
41.00	58.00
42.00	63.00
43.00	68.00
44.00	82.00
45.00	128.00
46.00	124.00
47.00	147.00
48.00	187.00
49.00	178.00
50.00	205.00
51.00	217.00
52.00	248.00
53.00	232.00
54.00	272.00
55.00	311.00
56.00	286.00
57.00	304.00
58.00	291.00
59.00	322.00
60.00	323.00
61.00	331.00
62.00	328.00
63.00	372.00
64.00	352.00
65.00	290.00
66.00	290.00
67.00	337.00
68.00	336.00
69.00	363.00
70.00	328.00
71.00	344.00
72.00	322.00
73.00	333.00
74.00	334.00
75.00	367.00
76.00	314.00
77.00	355.00
78.00	376.00
79.00	360.00
80.00	336.00
81.00	332.00
82.00	355.00
83.00	324.00
84.00	345.00
85.00	321.00
86.00	308.00
87.00	322.00
88.00	313.00
89.00	320.00
90.00	322.00
91.00	319.00
92.00	339.00
93.00	325.00
94.00	280.00
95.00	320.00
96.00	301.00
97.00	301.00
98.00	319.00
99.00	305.00
100.00	285.00
101.00	283.00
102.00	289.00
103.00	295.00
104.00	275.00
105.00	293.00
106.00	276.00
107.00	317.00
108.00	273.00
109.00	286.00
110.00	262.00
111.00	228.00
112.00	283.00
113.00	254.00
114.00	248.00
115.00	226.00
116.00	270.00
117.00	259.00
118.00	267.00
119.00	284.00
120.00	301.00
121.00	265.00
122.00	252.00
123.00	232.00
124.00	242.00
125.00	241.00
126.00	237.00
127.00	229.00
128.00	228.00
129.00	223.00
130.00	215.00
131.00	261.00
132.00	221.00
133.00	216.00
134.00	257.00
135.00	241.00
136.00	278.00
137.00	287.00
138.00	387.00
139.00	543.00
140.00	671.00
141.00	862.00
142.00	1017.00
143.00	1223.00
144.00	1289.00
145.00	1367.00
146.00	1248.00
147.00	1097.00
148.00	1064.00
149.00	907.00
150.00	818.00
151.00	723.00
152.00	715.00
153.00	599.00
154.00	548.00
155.00	531.00
156.00	494.00
157.00	438.00
158.00	439.00
159.00	523.00
160.00	793.00
161.00	1237.00
162.00	1967.00
163.00	3257.00
164.00	4868.00
165.00	6744.00
166.00	8848.00
167.00	10651.00
168.00	11886.00
169.00	12548.00
170.00	12141.00
171.00	10854.00
172.00	9221.00
173.00	7178.00
174.00	5354.00
175.00	3811.00
176.00	2747.00
177.00	1990.00
178.00	1502.00
179.00	1242.00
180.00	1078.00
181.00	1009.00
182.00	1031.00
183.00	1138.00
184.00	1311.00
185.00	1628.00
186.00	1958.00
187.00	2148.00
188.00	2413.00
189.00	2528.00
190.00	2445.00
191.00	2137.00
192.00	1851.00
193.00	1554.00
194.00	1178.00
195.00	953.00
196.00	683.00
197.00	506.00
198.00	425.00
199.00	353.00
200.00	328.00
201.00	289.00
202.00	257.00
203.00	253.00
204.00	279.00
205.00	244.00
206.00	259.00
207.00	270.00
208.00	254.00
209.00	277.00
210.00	253.00
211.00	256.00
212.00	263.00
213.00	298.00
214.00	314.00
215.00	338.00
216.00	378.00
217.00	434.00
218.00	501.00
219.00	500.00
220.00	551.00
221.00	556.00
222.00	504.00
223.00	524.00
224.00	462.00
225.00	389.00
226.00	355.00
227.00	360.00
228.00	288.00
229.00	270.00
230.00	281.00
231.00	226.00
232.00	235.00
233.00	248.00
234.00	253.00
235.00	220.00
236.00	246.00
237.00	220.00
238.00	226.00
239.00	249.00
240.00	225.00
241.00	245.00
242.00	197.00
243.00	224.00
244.00	225.00
245.00	203.00
246.00	223.00
247.00	206.00
248.00	252.00
249.00	251.00
250.00	230.00
251.00	230.00
252.00	249.00
253.00	226.00
254.00	234.00
255.00	249.00
256.00	232.00
257.00	233.00
258.00	275.00
259.00	273.00
260.00	254.00
261.00	283.00
262.00	308.00
263.00	282.00
264.00	288.00
265.00	312.00
266.00	328.00
267.00	380.00
268.00	401.00
269.00	342.00
270.00	332.00
271.00	357.00
272.00	291.00
273.00	324.00
274.00	324.00
275.00	316.00
276.00	345.00
277.00	369.00
278.00	486.00
279.00	600.00
280.00	752.00
281.00	980.00
282.00	1154.00
283.00	1533.00
284.00	1751.00
285.00	1968.00
286.00	2117.00
287.00	2128.00
288.00	1960.00
289.00	1792.00
290.00	1685.00
291.00	1422.00
292.00	1126.00
293.00	860.00
294.00	724.00
295.00	570.00
296.00	459.00
297.00	371.00
298.00	375.00
299.00	377.00
300.00	378.00
301.00	393.00
302.00	403.00
303.00	487.00
304.00	489.00
305.00	560.00
306.00	703.00
307.00	805.00
308.00	916.00
309.00	1198.00
310.00	1687.00
311.00	2407.00
312.00	3504.00
313.00	4920.00
314.00	6991.00
315.00	9552.00
316.00	12586.00
317.00	15945.00
318.00	18850.00
319.00	21635.00
320.00	23642.00
321.00	24153.00
322.00	23748.00
323.00	21984.00
324.00	19831.00
325.00	16302.00
326.00	13200.00
327.00	10037.00
328.00	7478.00
329.00	5107.00
330.00	3560.00
331.00	2336.00
332.00	1589.00
333.00	1136.00
334.00	897.00
335.00	836.00
336.00	851.00
337.00	987.00
338.00	1065.00
339.00	1434.00
340.00	1858.00
341.00	2378.00
342.00	3256.00
343.00	4368.00
344.00	6199.00
345.00	8867.00
346.00	12815.00
347.00	18655.00
348.00	27354.00
349.00	38852.00
350.00	54601.00
351.00	74139.00
352.00	96388.00
353.00	121333.00
354.00	145633.00
355.00	167125.00
356.00	184211.00
357.00	191639.00
358.00	190770.00
359.00	182857.00
360.00	165450.00
361.00	142970.00
362.00	118629.00
363.00	93001.00
364.00	69971.00
365.00	50302.00
366.00	34792.00
367.00	23063.00
368.00	14642.00
369.00	9037.00
370.00	5604.00
371.00	3446.00
372.00	2499.00
373.00	1992.00
374.00	1738.00
375.00	1994.00
376.00	2295.00
377.00	2980.00
378.00	3859.00
379.00	5249.00
380.00	7141.00
381.00	9128.00
382.00	11984.00
383.00	15211.00
384.00	18628.00
385.00	22095.00
386.00	25028.00
387.00	27319.00
388.00	28401.00
389.00	28853.00
390.00	27635.00
391.00	25524.00
392.00	22435.00
393.00	18798.00
394.00	15320.00
395.00	11895.00
396.00	8934.00
397.00	6354.00
398.00	4381.00
399.00	3132.00
400.00	2011.00
401.00	1386.00
402.00	960.00
403.00	724.00
404.00	562.00
405.00	447.00
406.00	372.00
407.00	336.00
408.00	328.00
409.00	329.00
410.00	337.00
411.00	318.00
412.00	350.00
413.00	362.00
414.00	388.00
415.00	398.00
416.00	385.00
417.00	402.00
418.00	432.00
419.00	464.00
420.00	521.00
421.00	649.00
422.00	745.00
423.00	975.00
424.00	1253.00
425.00	1669.00
426.00	2274.00
427.00	3300.00
428.00	4317.00
429.00	5831.00
430.00	7460.00
431.00	9307.00
432.00	10951.00
433.00	12655.00
434.00	14100.00
435.00	15122.00
436.00	15434.00
437.00	15405.00
438.00	14460.00
439.00	13667.00
440.00	11952.00
441.00	10168.00
442.00	8467.00
443.00	6986.00
444.00	5808.00
445.00	4782.00
446.00	4185.00
447.00	3473.00
448.00	3182.00
449.00	2980.00
450.00	2724.00
451.00	2604.00
452.00	2370.00
453.00	2167.00
454.00	1948.00
455.00	1807.00
456.00	1555.00
457.00	1351.00
458.00	1202.00
459.00	1127.00
460.00	1106.00
461.00	1126.00
462.00	1121.00
463.00	1179.00
464.00	1278.00
465.00	1397.00
466.00	1572.00
467.00	1718.00
468.00	1915.00
469.00	2092.00
470.00	2411.00
471.00	2678.00
472.00	2998.00
473.00	3277.00
474.00	3655.00
475.00	3829.00
476.00	4107.00
477.00	4114.00
478.00	4074.00
479.00	3970.00
480.00	3522.00
481.00	3394.00
482.00	3082.00
483.00	2537.00
484.00	2252.00
485.00	1910.00
486.00	1576.00
487.00	1349.00
488.00	1138.00
489.00	1068.00
490.00	996.00
491.00	902.00
492.00	912.00
493.00	876.00
494.00	859.00
495.00	913.00
496.00	884.00
497.00	949.00
498.00	965.00
499.00	955.00
500.00	1097.00
501.00	1078.00
502.00	1076.00
503.00	1175.00
504.00	1154.00
505.00	1285.00
506.00	1281.00
507.00	1294.00
508.00	1311.00
509.00	1323.00
510.00	1381.00
511.00	1455.00
512.00	1469.00
513.00	1569.00
514.00	1640.00
515.00	1715.00
516.00	1793.00
517.00	1864.00
518.00	1915.00
519.00	2036.00
520.00	2134.00
521.00	2204.00
522.00	2272.00
523.00	2294.00
524.00	2356.00
525.00	2269.00
526.00	2097.00
527.00	1988.00
528.00	1964.00
529.00	1855.00
530.00	1784.00
531.00	1758.00
532.00	1655.00
533.00	1560.00
534.00	1566.00
535.00	1558.00
536.00	1452.00
537.00	1501.00
538.00	1576.00
539.00	1557.00
540.00	1452.00
541.00	1559.00
542.00	1601.00
543.00	1631.00
544.00	1594.00
545.00	1509.00
546.00	1652.00
547.00	1656.00
548.00	1565.00
549.00	1654.00
550.00	1748.00
551.00	1772.00
552.00	1800.00
553.00	1901.00
554.00	2118.00
555.00	2233.00
556.00	2613.00
557.00	3108.00
558.00	3870.00
559.00	4777.00
560.00	5926.00
561.00	7450.00
562.00	9416.00
563.00	11368.00
564.00	13589.00
565.00	15606.00
566.00	17805.00
567.00	19501.00
568.00	21105.00
569.00	21956.00
570.00	22275.00
571.00	22176.00
572.00	20325.00
573.00	18904.00
574.00	16912.00
575.00	14854.00
576.00	12365.00
577.00	10402.00
578.00	8483.00
579.00	6777.00
580.00	5292.00
581.00	4413.00
582.00	3435.00
583.00	2880.00
584.00	2518.00
585.00	2395.00
586.00	2259.00
587.00	2162.00
588.00	2159.00
589.00	2209.00
590.00	2277.00
591.00	2411.00
592.00	2486.00
593.00	2624.00
594.00	2798.00
595.00	3182.00
596.00	3305.00
597.00	3819.00
598.00	4566.00
599.00	5469.00
600.00	6976.00
601.00	9506.00
602.00	13372.00
603.00	18793.00
604.00	26661.00
605.00	38253.00
606.00	54264.00
607.00	75338.00
608.00	103096.00
609.00	136944.00
610.00	178084.00
611.00	223021.00
612.00	274108.00
613.00	327279.00
614.00	379978.00
615.00	425657.00
616.00	463448.00
617.00	491556.00
618.00	502838.00
619.00	503498.00
620.00	486379.00
621.00	455349.00
622.00	415029.00
623.00	364884.00
624.00	315565.00
625.00	260083.00
626.00	211075.00
627.00	165549.00
628.00	126933.00
629.00	94540.00
630.00	68862.00
631.00	49044.00
632.00	34991.00
633.00	23731.00
634.00	16823.00
635.00	11948.00
636.00	8786.00
637.00	6518.00
638.00	5156.00
639.00	4452.00
640.00	4037.00
641.00	3699.00
642.00	3477.00
643.00	3328.00
644.00	3390.00
645.00	3406.00
646.00	3298.00
647.00	3328.00
648.00	3305.00
649.00	3323.00
650.00	3483.00
651.00	3472.00
652.00	3476.00
653.00	3674.00
654.00	3676.00
655.00	3806.00
656.00	3971.00
657.00	4093.00
658.00	4236.00
659.00	4484.00
660.00	4799.00
661.00	5033.00
662.00	5454.00
663.00	5867.00
664.00	6599.00
665.00	7454.00
666.00	8637.00
667.00	10174.00
668.00	12126.00
669.00	15159.00
670.00	18550.00
671.00	22734.00
672.00	27769.00
673.00	34047.00
674.00	41065.00
675.00	48236.00
676.00	55724.00
677.00	63040.00
678.00	69268.00
679.00	74909.00
680.00	78661.00
681.00	80884.00
682.00	80503.00
683.00	77899.00
684.00	74402.00
685.00	68481.00
686.00	61537.00
687.00	54021.00
688.00	45906.00
689.00	38490.00
690.00	31730.00
691.00	25220.00
692.00	19910.00
693.00	15049.00
694.00	11739.00
695.00	9034.00
696.00	6998.00
697.00	5647.00
698.00	4466.00
699.00	3859.00
700.00	3499.00
701.00	3096.00
702.00	2922.00
703.00	2957.00
704.00	2924.00
705.00	2907.00
706.00	2964.00
707.00	2957.00
708.00	3152.00
709.00	3174.00
710.00	3397.00
711.00	3408.00
712.00	3698.00
713.00	3924.00
714.00	4028.00
715.00	4114.00
716.00	4291.00
717.00	4507.00
718.00	4635.00
719.00	5056.00
720.00	4952.00
721.00	4933.00
722.00	4872.00
723.00	4938.00
724.00	4882.00
725.00	4740.00
726.00	4516.00
727.00	4362.00
728.00	4121.00
729.00	3953.00
730.00	3868.00
731.00	3726.00
732.00	3475.00
733.00	3329.00
734.00	3251.00
735.00	3188.00
736.00	3153.00
737.00	3101.00
738.00	3187.00
739.00	2991.00
740.00	3089.00
741.00	2997.00
742.00	2974.00
743.00	3027.00
744.00	3023.00
745.00	3012.00
746.00	2930.00
747.00	2893.00
748.00	2908.00
749.00	3027.00
750.00	2934.00
751.00	3001.00
752.00	3042.00
753.00	3044.00
754.00	2961.00
755.00	2920.00
756.00	3000.00
757.00	3035.00
758.00	3101.00
759.00	3229.00
760.00	3175.00
761.00	3242.00
762.00	3279.00
763.00	3263.00
764.00	3422.00
765.00	3516.00
766.00	3483.00
767.00	3742.00
768.00	3804.00
769.00	3915.00
770.00	4022.00
771.00	4240.00
772.00	4382.00
773.00	4541.00
774.00	4676.00
775.00	4755.00
776.00	4851.00
777.00	4778.00
778.00	4867.00
779.00	4915.00
780.00	4914.00
781.00	4835.00
782.00	4754.00
783.00	4767.00
784.00	4598.00
785.00	4636.00
786.00	4609.00
787.00	4404.00
788.00	4607.00
789.00	4567.00
790.00	4609.00
791.00	4508.00
792.00	4583.00
793.00	4639.00
794.00	4736.00
795.00	4734.00
796.00	4717.00
797.00	4815.00
798.00	4772.00
799.00	4745.00
800.00	4829.00
801.00	4944.00
802.00	4937.00
803.00	4924.00
804.00	4896.00
805.00	5032.00
806.00	4960.00
807.00	5017.00
808.00	4945.00
809.00	4912.00
810.00	5024.00
811.00	5096.00
812.00	5016.00
813.00	4819.00
814.00	5028.00
815.00	5022.00
816.00	4928.00
817.00	4952.00
818.00	5009.00
819.00	5001.00
820.00	5189.00
821.00	5267.00
822.00	5389.00
823.00	5617.00
824.00	5871.00
825.00	6126.00
826.00	6349.00
827.00	6665.00
828.00	6852.00
829.00	7165.00
830.00	7570.00
831.00	7540.00
832.00	7708.00
833.00	7662.00
834.00	7674.00
835.00	7660.00
836.00	7516.00
837.00	7344.00
838.00	7265.00
839.00	6973.00
840.00	6498.00
841.00	6231.00
842.00	6184.00
843.00	5798.00
844.00	5604.00
845.00	5316.00
846.00	5246.00
847.00	5177.00
848.00	5183.00
849.00	5076.00
850.00	5027.00
851.00	5022.00
852.00	5060.00
853.00	4857.00
854.00	5090.00
855.00	5008.00
856.00	5172.00
857.00	5160.00
858.00	5168.00
859.00	5218.00
860.00	5105.00
861.00	5020.00
862.00	5147.00
863.00	5149.00
864.00	5143.00
865.00	5124.00
866.00	5085.00
867.00	5119.00
868.00	5129.00
869.00	5058.00
870.00	5060.00
871.00	5035.00
872.00	5067.00
873.00	5098.00
874.00	5253.00
875.00	5171.00
876.00	5197.00
877.00	5092.00
878.00	5275.00
879.00	5407.00
880.00	5462.00
881.00	5257.00
882.00	5529.00
883.00	5476.00
884.00	5661.00
885.00	5689.00
886.00	5760.00
887.00	5973.00
888.00	5894.00
889.00	5876.00
890.00	5986.00
891.00	5969.00
892.00	6014.00
893.00	6089.00
894.00	6003.00
895.00	6159.00
896.00	5980.00
897.00	6192.00
898.00	6150.00
899.00	6165.00
900.00	6119.00
901.00	5894.00
902.00	5962.00
903.00	5931.00
904.00	6076.00
905.00	5860.00
906.00	5795.00
907.00	5897.00
908.00	5952.00
909.00	5875.00
910.00	5939.00
911.00	6252.00
912.00	5892.00
913.00	6032.00
914.00	6213.00
915.00	6180.00
916.00	6394.00
917.00	6242.00
918.00	6431.00
919.00	6511.00
920.00	6387.00
921.00	6594.00
922.00	6528.00
923.00	6475.00
924.00	6600.00
925.00	6618.00
926.00	6545.00
927.00	6614.00
928.00	6618.00
929.00	6500.00
930.00	6477.00
931.00	6669.00
932.00	6571.00
933.00	6424.00
934.00	6493.00
935.00	6478.00
936.00	6377.00
937.00	6258.00
938.00	6330.00
939.00	6329.00
940.00	6312.00
941.00	6327.00
942.00	6302.00
943.00	6300.00
944.00	6258.00
945.00	6233.00
946.00	6037.00
947.00	6256.00
948.00	6049.00
949.00	6169.00
950.00	6180.00
951.00	6148.00
952.00	6183.00
953.00	6195.00
954.00	6167.00
955.00	6211.00
956.00	6240.00
957.00	6277.00
958.00	6256.00
959.00	6427.00
960.00	6309.00
961.00	6496.00
962.00	6492.00
963.00	6626.00
964.00	6543.00
965.00	6599.00
966.00	6657.00
967.00	6655.00
968.00	6738.00
969.00	6868.00
970.00	6915.00
971.00	6859.00
972.00	6930.00
973.00	7085.00
974.00	6855.00
975.00	7019.00
976.00	6795.00
977.00	6725.00
978.00	6864.00
979.00	6746.00
980.00	6667.00
981.00	6617.00
982.00	6670.00
983.00	6480.00
984.00	6517.00
985.00	6589.00
986.00	6402.00
987.00	6500.00
988.00	6455.00
989.00	6346.00
990.00	6356.00
991.00	6417.00
992.00	6439.00
993.00	6482.00
994.00	6463.00
995.00	6384.00
996.00	6463.00
997.00	6498.00
998.00	6343.00
999.00	6449.00
1000.00	6320.00
1001.00	6371.00
1002.00	6605.00
1003.00	6484.00
1004.00	6559.00
1005.00	6521.00
1006.00	6522.00
1007.00	6403.00
1008.00	6730.00
1009.00	6763.00
1010.00	6624.00
1011.00	6896.00
1012.00	6793.00
1013.00	6886.00
1014.00	6966.00
1015.00	6826.00
1016.00	6863.00
1017.00	6907.00
1018.00	7066.00
1019.00	6872.00
1020.00	6850.00
1021.00	6903.00
1022.00	6622.00
1023.00	6690.00
1024.00	6790.00
1025.00	6782.00
1026.00	6665.00
1027.00	6584.00
1028.00	6479.00
1029.00	6563.00
1030.00	6608.00
1031.00	6484.00
1032.00	6569.00
1033.00	6437.00
1034.00	6584.00
1035.00	6430.00
1036.00	6498.00
1037.00	6468.00
1038.00	6496.00
1039.00	6607.00
1040.00	6419.00
1041.00	6522.00
1042.00	6610.00
1043.00	6594.00
1044.00	6582.00
1045.00	6644.00
1046.00	6711.00
1047.00	6559.00
1048.00	6558.00
1049.00	6795.00
1050.00	6673.00
1051.00	6607.00
1052.00	6767.00
1053.00	6612.00
1054.00	6888.00
1055.00	6581.00
1056.00	6667.00
1057.00	6603.00
1058.00	6711.00
1059.00	6613.00
1060.00	6701.00
1061.00	6509.00
1062.00	6669.00
1063.00	6668.00
1064.00	6666.00
1065.00	6571.00
1066.00	6615.00
1067.00	6644.00
1068.00	6684.00
1069.00	6575.00
1070.00	6609.00
1071.00	6716.00
1072.00	6640.00
1073.00	6605.00
1074.00	6833.00
1075.00	6686.00
1076.00	6730.00
1077.00	6626.00
1078.00	6711.00
1079.00	6669.00
1080.00	6736.00
1081.00	6723.00
1082.00	6681.00
1083.00	6968.00
1084.00	6876.00
1085.00	6769.00
1086.00	6899.00
1087.00	6772.00
1088.00	6705.00
1089.00	6803.00
1090.00	6820.00
1091.00	6870.00
1092.00	6729.00
1093.00	6680.00
1094.00	6959.00
1095.00	7003.00
1096.00	6904.00
1097.00	6654.00
1098.00	6868.00
1099.00	6889.00
1100.00	6807.00
1101.00	6768.00
1102.00	6760.00
1103.00	6930.00
1104.00	6889.00
1105.00	6933.00
1106.00	6836.00
1107.00	6769.00
1108.00	6999.00
1109.00	6917.00
1110.00	6978.00
1111.00	7039.00
1112.00	6912.00
1113.00	6803.00
1114.00	7033.00
1115.00	7069.00
1116.00	7040.00
1117.00	7080.00
1118.00	7099.00
1119.00	7004.00
1120.00	7095.00
1121.00	6923.00
1122.00	6922.00
1123.00	7010.00
1124.00	6986.00
1125.00	6878.00
1126.00	7095.00
1127.00	6868.00
1128.00	6955.00
1129.00	6980.00
1130.00	6896.00
1131.00	7061.00
1132.00	7041.00
1133.00	6852.00
1134.00	6964.00
1135.00	6981.00
1136.00	6925.00
1137.00	7067.00
1138.00	7097.00
1139.00	7180.00
1140.00	6847.00
1141.00	7072.00
1142.00	6853.00
1143.00	7022.00
1144.00	7098.00
1145.00	6819.00
1146.00	7005.00
1147.00	6893.00
1148.00	6992.00
1149.00	7053.00
1150.00	6848.00
1151.00	7118.00
1152.00	6874.00
1153.00	6913.00
1154.00	7020.00
1155.00	7151.00
1156.00	7010.00
1157.00	6829.00
1158.00	7070.00
1159.00	6908.00
1160.00	6963.00
1161.00	6895.00
1162.00	6785.00
1163.00	6916.00
1164.00	6804.00
1165.00	6830.00
1166.00	6782.00
1167.00	6657.00
1168.00	6782.00
1169.00	6811.00
1170.00	6820.00
1171.00	6759.00
1172.00	6677.00
1173.00	6814.00
1174.00	6751.00
1175.00	6896.00
1176.00	6809.00
1177.00	6960.00
1178.00	6976.00
1179.00	6909.00
1180.00	6908.00
1181.00	6956.00
1182.00	7013.00
1183.00	6789.00
1184.00	6849.00
1185.00	6935.00
1186.00	7012.00
1187.00	7067.00
1188.00	6929.00
1189.00	6990.00
1190.00	6910.00
1191.00	6798.00
1192.00	6897.00
1193.00	6962.00
1194.00	7010.00
1195.00	6909.00
1196.00	6915.00
1197.00	7032.00
1198.00	6922.00
1199.00	6903.00
1200.00	6857.00
1201.00	6913.00
1202.00	6865.00
1203.00	6855.00
1204.00	6755.00
1205.00	7013.00
1206.00	6878.00
1207.00	6882.00
1208.00	7094.00
1209.00	7134.00
1210.00	7039.00
1211.00	6984.00
1212.00	6931.00
1213.00	7094.00
1214.00	7012.00
1215.00	7277.00
1216.00	7218.00
1217.00	7421.00
1218.00	7297.00
1219.00	7143.00
1220.00	7301.00
1221.00	7295.00
1222.00	7369.00
1223.00	7409.00
1224.00	7583.00
1225.00	7666.00
1226.00	7534.00
1227.00	7723.00
1228.00	7771.00
1229.00	7745.00
1230.00	7907.00
1231.00	7742.00
1232.00	7952.00
1233.00	7975.00
1234.00	7949.00
1235.00	7792.00
1236.00	7954.00
1237.00	7902.00
1238.00	7767.00
1239.00	7736.00
1240.00	7765.00
1241.00	7647.00
1242.00	7410.00
1243.00	7394.00
1244.00	7310.00
1245.00	7310.00
1246.00	7242.00
1247.00	7056.00
1248.00	7034.00
1249.00	7018.00
1250.00	7141.00
1251.00	7063.00
1252.00	6978.00
1253.00	6991.00
1254.00	6834.00
1255.00	6900.00
1256.00	6840.00
1257.00	6767.00
1258.00	6782.00
1259.00	6867.00
1260.00	6897.00
1261.00	6830.00
1262.00	6837.00
1263.00	6779.00
1264.00	6967.00
1265.00	6729.00
1266.00	6928.00
1267.00	6721.00
1268.00	6964.00
1269.00	6894.00
1270.00	7086.00
1271.00	6893.00
1272.00	6920.00
1273.00	7021.00
1274.00	7163.00
1275.00	7135.00
1276.00	7183.00
1277.00	7355.00
1278.00	7462.00
1279.00	7391.00
1280.00	7568.00
1281.00	7821.00
1282.00	7776.00
1283.00	8073.00
1284.00	8160.00
1285.00	8385.00
1286.00	8070.00
1287.00	8370.00
1288.00	8470.00
1289.00	8588.00
1290.00	8657.00
1291.00	8435.00
1292.00	8484.00
1293.00	8597.00
1294.00	8253.00
1295.00	8321.00
1296.00	8249.00
1297.00	8165.00
1298.00	7887.00
1299.00	7697.00
1300.00	7885.00
1301.00	7644.00
1302.00	7415.00
1303.00	7296.00
1304.00	7447.00
1305.00	7182.00
1306.00	7161.00
1307.00	7069.00
1308.00	7021.00
1309.00	6836.00
1310.00	6800.00
1311.00	6805.00
1312.00	6806.00
1313.00	6722.00
1314.00	6531.00
1315.00	6741.00
1316.00	6612.00
1317.00	6603.00
1318.00	6777.00
1319.00	6600.00
1320.00	6576.00
1321.00	6432.00
1322.00	6612.00
1323.00	6673.00
1324.00	6604.00
1325.00	6523.00
1326.00	6601.00
1327.00	6598.00
1328.00	6594.00
1329.00	6651.00
1330.00	6559.00
1331.00	6629.00
1332.00	6531.00
1333.00	6564.00
1334.00	6504.00
1335.00	6756.00
1336.00	6580.00
1337.00	6618.00
1338.00	6629.00
1339.00	6512.00
1340.00	6615.00
1341.00	6695.00
1342.00	6623.00
1343.00	6798.00
1344.00	6833.00
1345.00	6927.00
1346.00	7055.00
1347.00	7077.00
1348.00	7289.00
1349.00	7588.00
1350.00	7757.00
1351.00	8010.00
1352.00	8295.00
1353.00	8527.00
1354.00	8811.00
1355.00	9018.00
1356.00	9459.00
1357.00	9763.00
1358.00	9869.00
1359.00	10106.00
1360.00	10337.00
1361.00	10652.00
1362.00	10914.00
1363.00	10628.00
1364.00	10831.00
1365.00	10765.00
1366.00	10819.00
1367.00	10593.00
1368.00	10284.00
1369.00	10304.00
1370.00	9686.00
1371.00	9445.00
1372.00	9200.00
1373.00	8837.00
1374.00	8755.00
1375.00	8129.00
1376.00	8105.00
1377.00	7520.00
1378.00	7435.00
1379.00	7117.00
1380.00	6987.00
1381.00	6745.00
1382.00	6615.00
1383.00	6559.00
1384.00	6462.00
1385.00	6104.00
1386.00	6138.00
1387.00	6150.00
1388.00	6160.00
1389.00	5998.00
1390.00	6012.00
1391.00	6101.00
1392.00	6034.00
1393.00	6104.00
1394.00	5873.00
1395.00	5893.00
1396.00	5881.00
1397.00	6004.00
1398.00	5890.00
1399.00	6008.00
1400.00	6144.00
1401.00	5944.00
1402.00	5830.00
1403.00	5916.00
1404.00	5879.00
1405.00	5767.00
1406.00	5897.00
1407.00	5714.00
1408.00	6010.00
1409.00	5908.00
1410.00	5882.00
1411.00	5897.00
1412.00	5874.00
1413.00	5751.00
1414.00	5813.00
1415.00	5883.00
1416.00	5788.00
1417.00	5743.00
1418.00	5775.00
1419.00	5850.00
1420.00	5757.00
1421.00	5682.00
1422.00	5902.00
1423.00	5911.00
1424.00	5910.00
1425.00	5950.00
1426.00	6013.00
1427.00	5794.00
1428.00	6026.00
1429.00	5950.00
1430.00	5992.00
1431.00	6032.00
1432.00	6020.00
1433.00	6155.00
1434.00	5993.00
1435.00	6151.00
1436.00	6289.00
1437.00	6202.00
1438.00	6301.00
1439.00	6248.00
1440.00	6168.00
1441.00	6215.00
1442.00	6158.00
1443.00	6179.00
1444.00	6241.00
1445.00	6195.00
1446.00	6121.00
1447.00	6041.00
1448.00	6115.00
1449.00	6083.00
1450.00	5998.00
1451.00	5888.00
1452.00	5843.00
1453.00	5855.00
1454.00	5871.00
1455.00	5788.00
1456.00	5887.00
1457.00	5782.00
1458.00	5714.00
1459.00	5728.00
1460.00	5758.00
1461.00	5708.00
1462.00	5613.00
1463.00	5732.00
1464.00	5695.00
1465.00	5607.00
1466.00	5579.00
1467.00	5678.00
1468.00	5656.00
1469.00	5643.00
1470.00	5567.00
1471.00	5371.00
1472.00	5561.00
1473.00	5603.00
1474.00	5673.00
1475.00	5490.00
1476.00	5644.00
1477.00	5503.00
1478.00	5444.00
1479.00	5439.00
1480.00	5447.00
1481.00	5489.00
1482.00	5502.00
1483.00	5543.00
1484.00	5487.00
1485.00	5367.00
1486.00	5387.00
1487.00	5411.00
1488.00	5539.00
1489.00	5514.00
1490.00	5344.00
1491.00	5483.00
1492.00	5431.00
1493.00	5522.00
1494.00	5460.00
1495.00	5406.00
1496.00	5596.00
1497.00	5472.00
1498.00	5562.00
1499.00	5555.00
1500.00	5691.00
1501.00	5430.00
1502.00	5666.00
1503.00	5550.00
1504.00	5620.00
1505.00	5722.00
1506.00	5878.00
1507.00	5932.00
1508.00	5973.00
1509.00	5939.00
1510.00	5918.00
1511.00	6208.00
1512.00	6234.00
1513.00	6361.00
1514.00	6481.00
1515.00	6478.00
1516.00	6670.00
1517.00	6678.00
1518.00	6726.00
1519.00	6624.00
1520.00	6719.00
1521.00	6903.00
1522.00	6868.00
1523.00	6926.00
1524.00	6851.00
1525.00	6831.00
1526.00	6784.00
1527.00	6906.00
1528.00	6785.00
1529.00	6647.00
1530.00	6698.00
1531.00	6802.00
1532.00	6547.00
1533.00	6558.00
1534.00	6350.00
1535.00	6158.00
1536.00	6267.00
1537.00	6108.00
1538.00	6144.00
1539.00	6074.00
1540.00	6066.00
1541.00	6088.00
1542.00	6291.00
1543.00	6076.00
1544.00	6137.00
1545.00	6124.00
1546.00	6111.00
1547.00	6106.00
1548.00	6149.00
1549.00	6203.00
1550.00	6390.00
1551.00	6378.00
1552.00	6485.00
1553.00	6573.00
1554.00	6579.00
1555.00	6389.00
1556.00	6822.00
1557.00	6772.00
1558.00	6824.00
1559.00	6884.00
1560.00	7127.00
1561.00	7057.00
1562.00	7084.00
1563.00	7298.00
1564.00	7457.00
1565.00	7476.00
1566.00	7756.00
1567.00	7589.00
1568.00	7775.00
1569.00	7948.00
1570.00	8108.00
1571.00	8107.00
1572.00	8393.00
1573.00	8391.00
1574.00	8654.00
1575.00	8592.00
1576.00	8847.00
1577.00	8703.00
1578.00	8715.00
1579.00	8992.00
1580.00	9080.00
1581.00	9130.00
1582.00	9227.00
1583.00	9191.00
1584.00	9441.00
1585.00	9425.00
1586.00	9539.00
1587.00	9415.00
1588.00	9267.00
1589.00	9357.00
1590.00	9179.00
1591.00	9556.00
1592.00	9529.00
1593.00	9235.00
1594.00	9163.00
1595.00	9332.00
1596.00	9138.00
1597.00	9161.00
1598.00	8958.00
1599.00	8863.00
1600.00	8927.00
1601.00	8781.00
1602.00	8633.00
1603.00	8576.00
1604.00	8513.00
1605.00	8221.00
1606.00	8221.00
1607.00	8191.00
1608.00	7861.00
1609.00	7964.00
1610.00	7673.00
1611.00	7527.00
1612.00	7574.00
1613.00	7381.00
1614.00	7352.00
1615.00	7108.00
1616.00	6924.00
1617.00	6921.00
1618.00	6664.00
1619.00	6419.00
1620.00	6488.00
1621.00	6274.00
1622.00	6311.00
1623.00	6138.00
1624.00	6009.00
1625.00	5984.00
1626.00	5902.00
1627.00	5740.00
1628.00	5621.00
1629.00	5641.00
1630.00	5388.00
1631.00	5351.00
1632.00	5376.00
1633.00	5265.00
1634.00	5266.00
1635.00	5166.00
1636.00	5224.00
1637.00	4999.00
1638.00	4938.00
1639.00	4964.00
1640.00	4945.00
1641.00	4848.00
1642.00	4770.00
1643.00	4712.00
1644.00	4773.00
1645.00	4578.00
1646.00	4603.00
1647.00	4521.00
1648.00	4501.00
1649.00	4442.00
1650.00	4674.00
1651.00	4436.00
1652.00	4481.00
1653.00	4467.00
1654.00	4408.00
1655.00	4541.00
1656.00	4584.00
1657.00	4560.00
1658.00	4658.00
1659.00	4705.00
1660.00	4800.00
1661.00	4773.00
1662.00	5042.00
1663.00	5054.00
1664.00	5174.00
1665.00	5420.00
1666.00	5479.00
1667.00	5823.00
1668.00	5969.00
1669.00	6136.00
1670.00	6464.00
1671.00	6733.00
1672.00	6868.00
1673.00	7320.00
1674.00	7404.00
1675.00	7603.00
1676.00	7982.00
1677.00	8190.00
1678.00	8247.00
1679.00	8345.00
1680.00	8490.00
1681.00	8570.00
1682.00	8705.00
1683.00	8289.00
1684.00	8624.00
1685.00	8192.00
1686.00	8255.00
1687.00	8130.00
1688.00	7718.00
1689.00	7606.00
1690.00	7218.00
1691.00	7039.00
1692.00	6675.00
1693.00	6380.00
1694.00	6114.00
1695.00	5855.00
1696.00	5643.00
1697.00	5403.00
1698.00	5100.00
1699.00	4768.00
1700.00	4754.00
1701.00	4459.00
1702.00	4224.00
1703.00	4100.00
1704.00	4063.00
1705.00	4030.00
1706.00	3944.00
1707.00	3750.00
1708.00	3680.00
1709.00	3655.00
1710.00	3632.00
1711.00	3618.00
1712.00	3589.00
1713.00	3619.00
1714.00	3534.00
1715.00	3448.00
1716.00	3417.00
1717.00	3450.00
1718.00	3374.00
1719.00	3554.00
1720.00	3372.00
1721.00	3478.00
1722.00	3427.00
1723.00	3534.00
1724.00	3440.00
1725.00	3380.00
1726.00	3525.00
1727.00	3392.00
1728.00	3427.00
1729.00	3363.00
1730.00	3475.00
1731.00	3336.00
1732.00	3419.00
1733.00	3414.00
1734.00	3245.00
1735.00	3292.00
1736.00	3311.00
1737.00	3411.00
1738.00	3539.00
1739.00	3529.00
1740.00	3455.00
1741.00	3413.00
1742.00	3511.00
1743.00	3428.00
1744.00	3377.00
1745.00	3484.00
1746.00	3427.00
1747.00	3390.00
1748.00	3477.00
1749.00	3408.00
1750.00	3546.00
1751.00	3601.00
1752.00	3570.00
1753.00	3495.00
1754.00	3640.00
1755.00	3536.00
1756.00	3579.00
1757.00	3583.00
1758.00	3662.00
1759.00	3510.00
1760.00	3595.00
1761.00	3602.00
1762.00	3669.00
1763.00	3623.00
1764.00	3695.00
1765.00	3470.00
1766.00	3593.00
1767.00	3545.00
1768.00	3546.00
1769.00	3631.00
1770.00	3483.00
1771.00	3607.00
1772.00	3624.00
1773.00	3571.00
1774.00	3604.00
1775.00	3517.00
1776.00	3560.00
1777.00	3558.00
1778.00	3531.00
1779.00	3458.00
1780.00	3370.00
1781.00	3435.00
1782.00	3501.00
1783.00	3420.00
1784.00	3386.00
1785.00	3371.00
1786.00	3321.00
1787.00	3369.00
1788.00	3371.00
1789.00	3257.00
1790.00	3246.00
1791.00	3161.00
1792.00	3267.00
1793.00	3123.00
1794.00	3120.00
1795.00	3009.00
1796.00	2992.00
1797.00	3009.00
1798.00	2988.00
1799.00	2999.00
1800.00	2966.00
1801.00	2914.00
1802.00	3024.00
1803.00	2964.00
1804.00	2853.00
1805.00	2825.00
1806.00	2727.00
1807.00	2864.00
1808.00	2684.00
1809.00	2684.00
1810.00	2656.00
1811.00	2565.00
1812.00	2574.00
1813.00	2584.00
1814.00	2522.00
1815.00	2557.00
1816.00	2565.00
1817.00	2505.00
1818.00	2516.00
1819.00	2438.00
1820.00	2462.00
1821.00	2396.00
1822.00	2354.00
1823.00	2323.00
1824.00	2358.00
1825.00	2292.00
1826.00	2277.00
1827.00	2329.00
1828.00	2259.00
1829.00	2213.00
1830.00	2222.00
1831.00	2147.00
1832.00	2220.00
1833.00	2093.00
1834.00	2055.00
1835.00	2110.00
1836.00	2121.00
1837.00	2091.00
1838.00	2069.00
1839.00	2007.00
1840.00	2097.00
1841.00	2016.00
1842.00	2059.00
1843.00	1990.00
1844.00	1930.00
1845.00	2066.00
1846.00	1900.00
1847.00	2007.00
1848.00	1924.00
1849.00	1980.00
1850.00	1894.00
1851.00	1977.00
1852.00	1808.00
1853.00	1897.00
1854.00	1820.00
1855.00	1808.00
1856.00	1848.00
1857.00	1893.00
1858.00	1856.00
1859.00	1813.00
1860.00	1870.00
1861.00	1880.00
1862.00	1827.00
1863.00	1961.00
1864.00	1854.00
1865.00	1750.00
1866.00	1786.00
1867.00	1791.00
1868.00	1810.00
1869.00	1829.00
1870.00	1742.00
1871.00	1781.00
1872.00	1798.00
1873.00	1847.00
1874.00	1837.00
1875.00	1890.00
1876.00	1905.00
1877.00	1980.00
1878.00	1964.00
1879.00	1858.00
1880.00	2059.00
1881.00	1982.00
1882.00	2008.00
1883.00	2012.00
1884.00	2139.00
1885.00	2251.00
1886.00	2224.00
1887.00	2137.00
1888.00	2216.00
1889.00	2212.00
1890.00	2206.00
1891.00	2187.00
1892.00	2141.00
1893.00	2139.00
1894.00	2105.00
1895.00	2110.00
1896.00	2016.00
1897.00	1981.00
1898.00	1963.00
1899.00	1979.00
1900.00	1833.00
1901.00	1806.00
1902.00	1753.00
1903.00	1690.00
1904.00	1695.00
1905.00	1691.00
1906.00	1612.00
1907.00	1597.00
1908.00	1553.00
1909.00	1560.00
1910.00	1555.00
1911.00	1526.00
1912.00	1538.00
1913.00	1534.00
1914.00	1483.00
1915.00	1529.00
1916.00	1491.00
1917.00	1437.00
1918.00	1434.00
1919.00	1515.00
1920.00	1452.00
1921.00	1476.00
1922.00	1437.00
1923.00	1483.00
1924.00	1382.00
1925.00	1450.00
1926.00	1326.00
1927.00	1377.00
1928.00	1359.00
1929.00	1367.00
1930.00	1320.00
1931.00	1343.00
1932.00	1343.00
1933.00	1332.00
1934.00	1268.00
1935.00	1288.00
1936.00	1183.00
1937.00	1233.00
1938.00	1261.00
1939.00	1216.00
1940.00	1223.00
1941.00	1220.00
1942.00	1201.00
1943.00	1186.00
1944.00	1199.00
1945.00	1177.00
1946.00	1161.00
1947.00	1155.00
1948.00	1160.00
1949.00	1172.00
1950.00	1127.00
1951.00	1166.00
1952.00	1169.00
1953.00	1150.00
1954.00	1114.00
1955.00	1140.00
1956.00	1148.00
1957.00	1108.00
1958.00	1138.00
1959.00	1109.00
1960.00	1065.00
1961.00	1034.00
1962.00	1129.00
1963.00	1071.00
1964.00	1107.00
1965.00	1132.00
1966.00	1066.00
1967.00	1013.00
1968.00	1072.00
1969.00	1042.00
1970.00	1033.00
1971.00	1052.00
1972.00	993.00
1973.00	1055.00
1974.00	1009.00
1975.00	1050.00
1976.00	1039.00
1977.00	1021.00
1978.00	1056.00
1979.00	1023.00
1980.00	1051.00
1981.00	1036.00
1982.00	1044.00
1983.00	1066.00
1984.00	998.00
1985.00	958.00
1986.00	1023.00
1987.00	920.00
1988.00	1020.00
1989.00	941.00
1990.00	1037.00
1991.00	936.00
1992.00	929.00
1993.00	953.00
1994.00	926.00
1995.00	900.00
1996.00	924.00
1997.00	899.00
1998.00	928.00
1999.00	926.00
2000.00	911.00
2001.00	873.00
2002.00	876.00
2003.00	881.00
2004.00	858.00
2005.00	870.00
2006.00	919.00
2007.00	851.00
2008.00	860.00
2009.00	845.00
2010.00	857.00
2011.00	857.00
2012.00	857.00
2013.00	810.00
2014.00	838.00
2015.00	795.00
2016.00	861.00
2017.00	824.00
2018.00	768.00
2019.00	796.00
2020.00	816.00
2021.00	801.00
2022.00	778.00
2023.00	827.00
2024.00	775.00
2025.00	803.00
2026.00	764.00
2027.00	764.00
2028.00	760.00
2029.00	732.00
2030.00	795.00
2031.00	802.00
2032.00	777.00
2033.00	753.00
2034.00	677.00
2035.00	698.00
2036.00	700.00
2037.00	741.00
2038.00	725.00
2039.00	720.00
2040.00	756.00
2041.00	735.00
2042.00	711.00
2043.00	691.00
2044.00	709.00
2045.00	639.00
2046.00	664.00
2047.00	662.00
2048.00	 0.00
