Date:	2023-09-18		
Time:	21:12		
Sample name:	Pellets		
Position:	1149.600011	mm	
Sample surface:	5.915262	cm	
Tube anode:	Mo		
Tube voltage:	30	kV	
Tube current:	50	mA	
Comments	not in position		
Gain	5.810000		
peaking_time	0.300000	m-sec	
trigger_threshold	30.000000	V	
mca_bin_width	2.000000	no:	
number_mca_channels	2048.000000	no:	
gap_time	0.100000	m-sec	
trigger_peaking_time	0.050000	m-sec	
livetime	17.333021	seconds	
runtime	20.000318	seconds	
input_count_rate	115337.482740	cps	
output_count_rate	99955.758205	cps	
triggers	2228963.000000	seconds	
events_in_run	1990522.000000	seconds	
channel	content		
 1.00	 0.00
 2.00	 0.00
 3.00	 0.00
 4.00	 0.00
 5.00	 0.00
 6.00	 0.00
 7.00	 0.00
 8.00	 0.00
 9.00	 0.00
10.00	 0.00
11.00	 0.00
12.00	 0.00
13.00	 0.00
14.00	 0.00
15.00	 0.00
16.00	 0.00
17.00	 0.00
18.00	 0.00
19.00	 0.00
20.00	 0.00
21.00	 0.00
22.00	 0.00
23.00	 0.00
24.00	 0.00
25.00	 0.00
26.00	 0.00
27.00	 0.00
28.00	 0.00
29.00	 0.00
30.00	 0.00
31.00	 1.00
32.00	 1.00
33.00	 3.00
34.00	 6.00
35.00	 8.00
36.00	 4.00
37.00	 8.00
38.00	24.00
39.00	27.00
40.00	40.00
41.00	48.00
42.00	58.00
43.00	64.00
44.00	82.00
45.00	120.00
46.00	125.00
47.00	149.00
48.00	188.00
49.00	179.00
50.00	210.00
51.00	206.00
52.00	277.00
53.00	246.00
54.00	262.00
55.00	305.00
56.00	304.00
57.00	306.00
58.00	289.00
59.00	303.00
60.00	315.00
61.00	317.00
62.00	324.00
63.00	343.00
64.00	321.00
65.00	306.00
66.00	350.00
67.00	327.00
68.00	333.00
69.00	330.00
70.00	310.00
71.00	320.00
72.00	299.00
73.00	330.00
74.00	352.00
75.00	373.00
76.00	366.00
77.00	336.00
78.00	312.00
79.00	312.00
80.00	329.00
81.00	325.00
82.00	311.00
83.00	354.00
84.00	328.00
85.00	300.00
86.00	301.00
87.00	303.00
88.00	310.00
89.00	301.00
90.00	329.00
91.00	301.00
92.00	329.00
93.00	295.00
94.00	277.00
95.00	316.00
96.00	259.00
97.00	242.00
98.00	280.00
99.00	271.00
100.00	302.00
101.00	276.00
102.00	271.00
103.00	264.00
104.00	283.00
105.00	248.00
106.00	286.00
107.00	245.00
108.00	254.00
109.00	254.00
110.00	255.00
111.00	239.00
112.00	268.00
113.00	232.00
114.00	285.00
115.00	250.00
116.00	286.00
117.00	298.00
118.00	258.00
119.00	241.00
120.00	251.00
121.00	263.00
122.00	249.00
123.00	224.00
124.00	229.00
125.00	205.00
126.00	189.00
127.00	186.00
128.00	167.00
129.00	205.00
130.00	217.00
131.00	217.00
132.00	207.00
133.00	206.00
134.00	168.00
135.00	197.00
136.00	228.00
137.00	277.00
138.00	382.00
139.00	487.00
140.00	640.00
141.00	767.00
142.00	987.00
143.00	1121.00
144.00	1232.00
145.00	1189.00
146.00	1114.00
147.00	999.00
148.00	892.00
149.00	797.00
150.00	688.00
151.00	633.00
152.00	571.00
153.00	611.00
154.00	553.00
155.00	446.00
156.00	456.00
157.00	422.00
158.00	419.00
159.00	529.00
160.00	789.00
161.00	1223.00
162.00	2057.00
163.00	3192.00
164.00	4727.00
165.00	6675.00
166.00	8554.00
167.00	10554.00
168.00	11780.00
169.00	12359.00
170.00	12084.00
171.00	10587.00
172.00	8875.00
173.00	7026.00
174.00	5107.00
175.00	3569.00
176.00	2647.00
177.00	1895.00
178.00	1369.00
179.00	1126.00
180.00	897.00
181.00	766.00
182.00	776.00
183.00	769.00
184.00	876.00
185.00	933.00
186.00	1110.00
187.00	1216.00
188.00	1256.00
189.00	1291.00
190.00	1276.00
191.00	1144.00
192.00	1033.00
193.00	819.00
194.00	714.00
195.00	560.00
196.00	483.00
197.00	418.00
198.00	329.00
199.00	251.00
200.00	225.00
201.00	250.00
202.00	217.00
203.00	213.00
204.00	213.00
205.00	209.00
206.00	188.00
207.00	199.00
208.00	185.00
209.00	189.00
210.00	207.00
211.00	212.00
212.00	194.00
213.00	256.00
214.00	216.00
215.00	257.00
216.00	233.00
217.00	308.00
218.00	304.00
219.00	321.00
220.00	363.00
221.00	390.00
222.00	356.00
223.00	381.00
224.00	376.00
225.00	298.00
226.00	293.00
227.00	260.00
228.00	229.00
229.00	203.00
230.00	206.00
231.00	190.00
232.00	199.00
233.00	187.00
234.00	169.00
235.00	164.00
236.00	175.00
237.00	165.00
238.00	187.00
239.00	164.00
240.00	181.00
241.00	169.00
242.00	179.00
243.00	193.00
244.00	160.00
245.00	181.00
246.00	174.00
247.00	172.00
248.00	181.00
249.00	205.00
250.00	201.00
251.00	193.00
252.00	187.00
253.00	174.00
254.00	189.00
255.00	201.00
256.00	212.00
257.00	218.00
258.00	223.00
259.00	216.00
260.00	215.00
261.00	234.00
262.00	214.00
263.00	240.00
264.00	276.00
265.00	255.00
266.00	281.00
267.00	307.00
268.00	284.00
269.00	304.00
270.00	257.00
271.00	260.00
272.00	272.00
273.00	260.00
274.00	228.00
275.00	281.00
276.00	292.00
277.00	359.00
278.00	417.00
279.00	597.00
280.00	779.00
281.00	1054.00
282.00	1359.00
283.00	1620.00
284.00	1883.00
285.00	2081.00
286.00	2277.00
287.00	2266.00
288.00	2187.00
289.00	1973.00
290.00	1817.00
291.00	1436.00
292.00	1213.00
293.00	987.00
294.00	685.00
295.00	576.00
296.00	426.00
297.00	327.00
298.00	308.00
299.00	316.00
300.00	286.00
301.00	293.00
302.00	308.00
303.00	377.00
304.00	414.00
305.00	494.00
306.00	540.00
307.00	660.00
308.00	825.00
309.00	1065.00
310.00	1495.00
311.00	2071.00
312.00	3085.00
313.00	4467.00
314.00	6359.00
315.00	8764.00
316.00	11324.00
317.00	14223.00
318.00	17167.00
319.00	19655.00
320.00	21524.00
321.00	22110.00
322.00	21613.00
323.00	20050.00
324.00	17648.00
325.00	15078.00
326.00	11997.00
327.00	9255.00
328.00	6704.00
329.00	4611.00
330.00	3167.00
331.00	2098.00
332.00	1409.00
333.00	906.00
334.00	760.00
335.00	647.00
336.00	638.00
337.00	647.00
338.00	805.00
339.00	993.00
340.00	1327.00
341.00	1795.00
342.00	2413.00
343.00	3112.00
344.00	4051.00
345.00	5543.00
346.00	7680.00
347.00	10751.00
348.00	14626.00
349.00	20586.00
350.00	28019.00
351.00	37709.00
352.00	48605.00
353.00	59889.00
354.00	72846.00
355.00	83017.00
356.00	91203.00
357.00	94650.00
358.00	94811.00
359.00	90200.00
360.00	81797.00
361.00	70718.00
362.00	58505.00
363.00	45946.00
364.00	34811.00
365.00	24982.00
366.00	17039.00
367.00	11326.00
368.00	7272.00
369.00	4551.00
370.00	2760.00
371.00	1843.00
372.00	1288.00
373.00	1010.00
374.00	942.00
375.00	1016.00
376.00	1231.00
377.00	1567.00
378.00	2039.00
379.00	2739.00
380.00	3585.00
381.00	4730.00
382.00	6234.00
383.00	7565.00
384.00	9635.00
385.00	11199.00
386.00	12793.00
387.00	13938.00
388.00	14391.00
389.00	14408.00
390.00	13914.00
391.00	12811.00
392.00	11191.00
393.00	9486.00
394.00	7871.00
395.00	5988.00
396.00	4741.00
397.00	3421.00
398.00	2397.00
399.00	1708.00
400.00	1165.00
401.00	847.00
402.00	638.00
403.00	521.00
404.00	409.00
405.00	376.00
406.00	301.00
407.00	329.00
408.00	327.00
409.00	322.00
410.00	320.00
411.00	317.00
412.00	314.00
413.00	310.00
414.00	340.00
415.00	325.00
416.00	396.00
417.00	380.00
418.00	432.00
419.00	454.00
420.00	501.00
421.00	610.00
422.00	698.00
423.00	874.00
424.00	1222.00
425.00	1726.00
426.00	2273.00
427.00	3141.00
428.00	4258.00
429.00	5415.00
430.00	7063.00
431.00	8789.00
432.00	10494.00
433.00	12108.00
434.00	13486.00
435.00	14173.00
436.00	14472.00
437.00	14534.00
438.00	13856.00
439.00	12963.00
440.00	11157.00
441.00	9682.00
442.00	8126.00
443.00	6563.00
444.00	5424.00
445.00	4349.00
446.00	3775.00
447.00	3170.00
448.00	2902.00
449.00	2703.00
450.00	2592.00
451.00	2375.00
452.00	2226.00
453.00	2087.00
454.00	1884.00
455.00	1734.00
456.00	1459.00
457.00	1390.00
458.00	1250.00
459.00	1150.00
460.00	1064.00
461.00	1122.00
462.00	1183.00
463.00	1312.00
464.00	1400.00
465.00	1533.00
466.00	1793.00
467.00	1857.00
468.00	2161.00
469.00	2324.00
470.00	2632.00
471.00	2818.00
472.00	3057.00
473.00	3397.00
474.00	3633.00
475.00	3882.00
476.00	4059.00
477.00	4013.00
478.00	3862.00
479.00	3854.00
480.00	3652.00
481.00	3250.00
482.00	2947.00
483.00	2541.00
484.00	2264.00
485.00	1916.00
486.00	1590.00
487.00	1318.00
488.00	1209.00
489.00	1022.00
490.00	898.00
491.00	875.00
492.00	842.00
493.00	845.00
494.00	902.00
495.00	922.00
496.00	922.00
497.00	990.00
498.00	1018.00
499.00	1008.00
500.00	1016.00
501.00	1098.00
502.00	1112.00
503.00	1192.00
504.00	1168.00
505.00	1260.00
506.00	1252.00
507.00	1321.00
508.00	1311.00
509.00	1385.00
510.00	1426.00
511.00	1493.00
512.00	1570.00
513.00	1551.00
514.00	1567.00
515.00	1743.00
516.00	1812.00
517.00	1992.00
518.00	2022.00
519.00	2197.00
520.00	2311.00
521.00	2421.00
522.00	2564.00
523.00	2544.00
524.00	2493.00
525.00	2423.00
526.00	2312.00
527.00	2245.00
528.00	2224.00
529.00	1971.00
530.00	1839.00
531.00	1843.00
532.00	1717.00
533.00	1673.00
534.00	1603.00
535.00	1621.00
536.00	1662.00
537.00	1564.00
538.00	1629.00
539.00	1653.00
540.00	1586.00
541.00	1616.00
542.00	1612.00
543.00	1596.00
544.00	1643.00
545.00	1743.00
546.00	1613.00
547.00	1744.00
548.00	1618.00
549.00	1745.00
550.00	1742.00
551.00	1732.00
552.00	1687.00
553.00	1796.00
554.00	2036.00
555.00	2220.00
556.00	2431.00
557.00	2890.00
558.00	3476.00
559.00	4374.00
560.00	5343.00
561.00	6649.00
562.00	8095.00
563.00	9990.00
564.00	11907.00
565.00	13757.00
566.00	15561.00
567.00	17324.00
568.00	18601.00
569.00	19420.00
570.00	19735.00
571.00	19153.00
572.00	18086.00
573.00	16990.00
574.00	15291.00
575.00	13266.00
576.00	11088.00
577.00	9382.00
578.00	7587.00
579.00	6174.00
580.00	4881.00
581.00	4023.00
582.00	3324.00
583.00	2787.00
584.00	2536.00
585.00	2277.00
586.00	2157.00
587.00	2197.00
588.00	2247.00
589.00	2185.00
590.00	2265.00
591.00	2386.00
592.00	2460.00
593.00	2542.00
594.00	2731.00
595.00	3044.00
596.00	3332.00
597.00	3692.00
598.00	4352.00
599.00	5285.00
600.00	6844.00
601.00	9130.00
602.00	12772.00
603.00	17717.00
604.00	25413.00
605.00	36011.00
606.00	50790.00
607.00	70467.00
608.00	96452.00
609.00	128342.00
610.00	166718.00
611.00	209718.00
612.00	257326.00
613.00	307333.00
614.00	356310.00
615.00	399943.00
616.00	436282.00
617.00	461648.00
618.00	473515.00
619.00	473539.00
620.00	457897.00
621.00	428706.00
622.00	390309.00
623.00	345509.00
624.00	296201.00
625.00	246328.00
626.00	198136.00
627.00	156575.00
628.00	120165.00
629.00	89545.00
630.00	65095.00
631.00	46297.00
632.00	32781.00
633.00	22778.00
634.00	16150.00
635.00	10944.00
636.00	8107.00
637.00	6317.00
638.00	5010.00
639.00	4148.00
640.00	3875.00
641.00	3488.00
642.00	3271.00
643.00	3345.00
644.00	3237.00
645.00	3227.00
646.00	3245.00
647.00	3211.00
648.00	3388.00
649.00	3341.00
650.00	3224.00
651.00	3426.00
652.00	3641.00
653.00	3567.00
654.00	3722.00
655.00	3758.00
656.00	3915.00
657.00	3971.00
658.00	4199.00
659.00	4344.00
660.00	4442.00
661.00	4839.00
662.00	5181.00
663.00	5802.00
664.00	6232.00
665.00	7051.00
666.00	8248.00
667.00	9955.00
668.00	11450.00
669.00	14202.00
670.00	17680.00
671.00	21198.00
672.00	26550.00
673.00	32238.00
674.00	38487.00
675.00	45434.00
676.00	52263.00
677.00	58931.00
678.00	65656.00
679.00	70628.00
680.00	74197.00
681.00	75889.00
682.00	76089.00
683.00	73658.00
684.00	70092.00
685.00	64628.00
686.00	58313.00
687.00	51058.00
688.00	43395.00
689.00	36429.00
690.00	29769.00
691.00	23997.00
692.00	18842.00
693.00	14610.00
694.00	11380.00
695.00	8641.00
696.00	6821.00
697.00	5508.00
698.00	4460.00
699.00	3832.00
700.00	3431.00
701.00	3034.00
702.00	2966.00
703.00	2888.00
704.00	2957.00
705.00	2892.00
706.00	2941.00
707.00	2904.00
708.00	3105.00
709.00	3137.00
710.00	3268.00
711.00	3460.00
712.00	3747.00
713.00	3726.00
714.00	3942.00
715.00	4186.00
716.00	4314.00
717.00	4625.00
718.00	4670.00
719.00	4771.00
720.00	4933.00
721.00	5088.00
722.00	4987.00
723.00	4996.00
724.00	4819.00
725.00	4701.00
726.00	4491.00
727.00	4299.00
728.00	4106.00
729.00	3940.00
730.00	3758.00
731.00	3590.00
732.00	3524.00
733.00	3306.00
734.00	3271.00
735.00	3081.00
736.00	3074.00
737.00	3032.00
738.00	3026.00
739.00	2975.00
740.00	2944.00
741.00	2820.00
742.00	2994.00
743.00	2827.00
744.00	2875.00
745.00	2899.00
746.00	2918.00
747.00	2960.00
748.00	2832.00
749.00	2845.00
750.00	2980.00
751.00	3034.00
752.00	2904.00
753.00	2919.00
754.00	3109.00
755.00	3027.00
756.00	2909.00
757.00	3049.00
758.00	2994.00
759.00	3027.00
760.00	3160.00
761.00	3173.00
762.00	3251.00
763.00	3291.00
764.00	3352.00
765.00	3511.00
766.00	3632.00
767.00	3919.00
768.00	3883.00
769.00	4001.00
770.00	4174.00
771.00	4401.00
772.00	4471.00
773.00	4631.00
774.00	4727.00
775.00	4914.00
776.00	5000.00
777.00	5153.00
778.00	4990.00
779.00	4991.00
780.00	4980.00
781.00	4940.00
782.00	4771.00
783.00	4833.00
784.00	4798.00
785.00	4589.00
786.00	4821.00
787.00	4803.00
788.00	4553.00
789.00	4603.00
790.00	4606.00
791.00	4742.00
792.00	4733.00
793.00	4795.00
794.00	4793.00
795.00	4695.00
796.00	4782.00
797.00	4987.00
798.00	4963.00
799.00	4874.00
800.00	4996.00
801.00	5035.00
802.00	5026.00
803.00	5024.00
804.00	5056.00
805.00	4974.00
806.00	5062.00
807.00	5094.00
808.00	4937.00
809.00	5089.00
810.00	4990.00
811.00	4916.00
812.00	5110.00
813.00	4930.00
814.00	5024.00
815.00	4968.00
816.00	5178.00
817.00	5074.00
818.00	5157.00
819.00	5314.00
820.00	5314.00
821.00	5427.00
822.00	5881.00
823.00	6146.00
824.00	6455.00
825.00	6875.00
826.00	7182.00
827.00	7643.00
828.00	8060.00
829.00	8465.00
830.00	8846.00
831.00	8984.00
832.00	9455.00
833.00	9487.00
834.00	9520.00
835.00	9056.00
836.00	9154.00
837.00	8696.00
838.00	8300.00
839.00	8000.00
840.00	7484.00
841.00	7004.00
842.00	6743.00
843.00	6329.00
844.00	6098.00
845.00	5665.00
846.00	5480.00
847.00	5373.00
848.00	5112.00
849.00	4990.00
850.00	4955.00
851.00	4933.00
852.00	5063.00
853.00	4920.00
854.00	5083.00
855.00	5061.00
856.00	5107.00
857.00	5230.00
858.00	5087.00
859.00	4955.00
860.00	5059.00
861.00	5150.00
862.00	5177.00
863.00	5140.00
864.00	5187.00
865.00	5174.00
866.00	5009.00
867.00	5255.00
868.00	5206.00
869.00	5090.00
870.00	5069.00
871.00	5145.00
872.00	5104.00
873.00	5307.00
874.00	5247.00
875.00	5268.00
876.00	5354.00
877.00	5386.00
878.00	5307.00
879.00	5569.00
880.00	5545.00
881.00	5475.00
882.00	5549.00
883.00	5724.00
884.00	5697.00
885.00	5831.00
886.00	5906.00
887.00	5968.00
888.00	5970.00
889.00	5960.00
890.00	6004.00
891.00	6007.00
892.00	6133.00
893.00	6006.00
894.00	6247.00
895.00	5958.00
896.00	6009.00
897.00	6163.00
898.00	6083.00
899.00	6074.00
900.00	6003.00
901.00	6049.00
902.00	6018.00
903.00	6199.00
904.00	5841.00
905.00	6038.00
906.00	5985.00
907.00	6001.00
908.00	5945.00
909.00	6043.00
910.00	6088.00
911.00	6010.00
912.00	6237.00
913.00	6199.00
914.00	6287.00
915.00	6324.00
916.00	6414.00
917.00	6575.00
918.00	6502.00
919.00	6549.00
920.00	6663.00
921.00	6699.00
922.00	6978.00
923.00	6849.00
924.00	6943.00
925.00	7021.00
926.00	7011.00
927.00	6754.00
928.00	6979.00
929.00	6827.00
930.00	6716.00
931.00	6876.00
932.00	6680.00
933.00	6665.00
934.00	6566.00
935.00	6689.00
936.00	6441.00
937.00	6461.00
938.00	6469.00
939.00	6390.00
940.00	6171.00
941.00	6033.00
942.00	6244.00
943.00	6244.00
944.00	6110.00
945.00	6174.00
946.00	6290.00
947.00	6144.00
948.00	6105.00
949.00	6037.00
950.00	6056.00
951.00	6183.00
952.00	6224.00
953.00	6072.00
954.00	6235.00
955.00	6355.00
956.00	6313.00
957.00	6310.00
958.00	6275.00
959.00	6282.00
960.00	6324.00
961.00	6416.00
962.00	6282.00
963.00	6270.00
964.00	6300.00
965.00	6341.00
966.00	6345.00
967.00	6438.00
968.00	6559.00
969.00	6558.00
970.00	6508.00
971.00	6653.00
972.00	6682.00
973.00	6533.00
974.00	6576.00
975.00	6622.00
976.00	6569.00
977.00	6601.00
978.00	6571.00
979.00	6431.00
980.00	6518.00
981.00	6479.00
982.00	6521.00
983.00	6518.00
984.00	6564.00
985.00	6425.00
986.00	6456.00
987.00	6402.00
988.00	6434.00
989.00	6392.00
990.00	6391.00
991.00	6352.00
992.00	6282.00
993.00	6416.00
994.00	6272.00
995.00	6390.00
996.00	6482.00
997.00	6301.00
998.00	6499.00
999.00	6383.00
1000.00	6382.00
1001.00	6532.00
1002.00	6508.00
1003.00	6546.00
1004.00	6512.00
1005.00	6645.00
1006.00	6671.00
1007.00	6632.00
1008.00	6662.00
1009.00	6717.00
1010.00	6853.00
1011.00	6933.00
1012.00	6995.00
1013.00	6938.00
1014.00	7068.00
1015.00	6997.00
1016.00	7106.00
1017.00	7051.00
1018.00	7036.00
1019.00	6916.00
1020.00	6931.00
1021.00	7012.00
1022.00	6878.00
1023.00	6890.00
1024.00	6807.00
1025.00	6752.00
1026.00	6694.00
1027.00	6532.00
1028.00	6488.00
1029.00	6681.00
1030.00	6429.00
1031.00	6390.00
1032.00	6450.00
1033.00	6480.00
1034.00	6389.00
1035.00	6483.00
1036.00	6565.00
1037.00	6578.00
1038.00	6564.00
1039.00	6464.00
1040.00	6483.00
1041.00	6641.00
1042.00	6513.00
1043.00	6497.00
1044.00	6618.00
1045.00	6521.00
1046.00	6687.00
1047.00	6729.00
1048.00	6691.00
1049.00	6619.00
1050.00	6756.00
1051.00	6519.00
1052.00	6648.00
1053.00	6721.00
1054.00	6821.00
1055.00	6727.00
1056.00	6784.00
1057.00	6736.00
1058.00	6642.00
1059.00	6704.00
1060.00	6538.00
1061.00	6721.00
1062.00	6736.00
1063.00	6790.00
1064.00	6772.00
1065.00	6727.00
1066.00	6898.00
1067.00	6795.00
1068.00	6669.00
1069.00	6752.00
1070.00	6751.00
1071.00	6880.00
1072.00	6708.00
1073.00	6772.00
1074.00	6846.00
1075.00	6709.00
1076.00	6839.00
1077.00	6886.00
1078.00	6962.00
1079.00	6777.00
1080.00	6858.00
1081.00	6863.00
1082.00	6674.00
1083.00	6897.00
1084.00	6800.00
1085.00	6955.00
1086.00	6820.00
1087.00	6919.00
1088.00	6932.00
1089.00	6882.00
1090.00	6982.00
1091.00	6923.00
1092.00	6751.00
1093.00	7053.00
1094.00	6957.00
1095.00	6920.00
1096.00	6844.00
1097.00	6901.00
1098.00	7067.00
1099.00	6993.00
1100.00	7012.00
1101.00	6889.00
1102.00	7176.00
1103.00	6998.00
1104.00	7014.00
1105.00	7026.00
1106.00	7045.00
1107.00	6898.00
1108.00	6976.00
1109.00	7026.00
1110.00	6967.00
1111.00	6843.00
1112.00	7186.00
1113.00	6964.00
1114.00	6977.00
1115.00	7110.00
1116.00	7005.00
1117.00	6936.00
1118.00	7072.00
1119.00	7113.00
1120.00	6999.00
1121.00	6948.00
1122.00	7012.00
1123.00	7064.00
1124.00	6975.00
1125.00	6946.00
1126.00	7173.00
1127.00	7007.00
1128.00	7094.00
1129.00	7135.00
1130.00	7126.00
1131.00	7110.00
1132.00	7046.00
1133.00	7081.00
1134.00	7055.00
1135.00	7188.00
1136.00	7107.00
1137.00	7186.00
1138.00	7020.00
1139.00	7094.00
1140.00	7080.00
1141.00	7100.00
1142.00	7077.00
1143.00	7067.00
1144.00	7250.00
1145.00	7157.00
1146.00	7114.00
1147.00	7113.00
1148.00	7017.00
1149.00	7006.00
1150.00	7004.00
1151.00	6901.00
1152.00	7033.00
1153.00	7210.00
1154.00	6950.00
1155.00	6859.00
1156.00	7021.00
1157.00	7024.00
1158.00	6747.00
1159.00	6877.00
1160.00	6994.00
1161.00	6784.00
1162.00	6885.00
1163.00	6718.00
1164.00	6835.00
1165.00	6965.00
1166.00	6844.00
1167.00	6941.00
1168.00	6846.00
1169.00	7036.00
1170.00	6666.00
1171.00	6948.00
1172.00	6821.00
1173.00	6944.00
1174.00	6809.00
1175.00	6930.00
1176.00	6804.00
1177.00	6871.00
1178.00	6800.00
1179.00	6965.00
1180.00	7047.00
1181.00	6854.00
1182.00	6877.00
1183.00	7011.00
1184.00	6883.00
1185.00	6912.00
1186.00	6970.00
1187.00	7041.00
1188.00	6856.00
1189.00	6983.00
1190.00	6982.00
1191.00	6929.00
1192.00	7062.00
1193.00	7100.00
1194.00	7050.00
1195.00	7055.00
1196.00	6934.00
1197.00	6971.00
1198.00	7017.00
1199.00	7018.00
1200.00	6977.00
1201.00	7022.00
1202.00	7057.00
1203.00	7134.00
1204.00	6969.00
1205.00	7062.00
1206.00	7032.00
1207.00	7116.00
1208.00	7169.00
1209.00	7199.00
1210.00	7186.00
1211.00	7200.00
1212.00	7182.00
1213.00	7369.00
1214.00	7294.00
1215.00	7333.00
1216.00	7396.00
1217.00	7241.00
1218.00	7260.00
1219.00	7466.00
1220.00	7441.00
1221.00	7502.00
1222.00	7537.00
1223.00	7651.00
1224.00	7625.00
1225.00	7724.00
1226.00	7620.00
1227.00	7633.00
1228.00	7776.00
1229.00	7888.00
1230.00	7884.00
1231.00	7943.00
1232.00	7883.00
1233.00	7977.00
1234.00	7918.00
1235.00	7968.00
1236.00	8039.00
1237.00	7754.00
1238.00	7829.00
1239.00	7732.00
1240.00	7773.00
1241.00	7657.00
1242.00	7520.00
1243.00	7560.00
1244.00	7328.00
1245.00	7392.00
1246.00	7227.00
1247.00	7173.00
1248.00	7214.00
1249.00	7360.00
1250.00	6947.00
1251.00	6929.00
1252.00	7178.00
1253.00	6967.00
1254.00	7201.00
1255.00	7078.00
1256.00	6997.00
1257.00	7080.00
1258.00	7028.00
1259.00	7110.00
1260.00	7001.00
1261.00	6996.00
1262.00	6975.00
1263.00	6988.00
1264.00	7053.00
1265.00	7077.00
1266.00	6959.00
1267.00	6939.00
1268.00	6903.00
1269.00	6972.00
1270.00	7040.00
1271.00	7090.00
1272.00	7127.00
1273.00	7194.00
1274.00	7058.00
1275.00	7275.00
1276.00	7382.00
1277.00	7356.00
1278.00	7506.00
1279.00	7593.00
1280.00	7775.00
1281.00	7847.00
1282.00	8019.00
1283.00	8282.00
1284.00	8297.00
1285.00	8398.00
1286.00	8468.00
1287.00	8657.00
1288.00	8691.00
1289.00	8822.00
1290.00	8658.00
1291.00	8711.00
1292.00	8869.00
1293.00	8603.00
1294.00	8520.00
1295.00	8541.00
1296.00	8337.00
1297.00	8362.00
1298.00	8310.00
1299.00	7975.00
1300.00	8012.00
1301.00	7719.00
1302.00	7641.00
1303.00	7599.00
1304.00	7483.00
1305.00	7442.00
1306.00	7355.00
1307.00	7290.00
1308.00	7038.00
1309.00	7090.00
1310.00	7100.00
1311.00	6938.00
1312.00	6880.00
1313.00	6917.00
1314.00	6795.00
1315.00	6945.00
1316.00	6807.00
1317.00	6818.00
1318.00	6813.00
1319.00	6758.00
1320.00	6751.00
1321.00	6746.00
1322.00	6668.00
1323.00	6846.00
1324.00	6656.00
1325.00	6789.00
1326.00	6761.00
1327.00	6554.00
1328.00	6632.00
1329.00	6722.00
1330.00	6632.00
1331.00	6745.00
1332.00	6831.00
1333.00	6545.00
1334.00	6715.00
1335.00	6710.00
1336.00	6522.00
1337.00	6636.00
1338.00	6709.00
1339.00	6577.00
1340.00	6721.00
1341.00	6668.00
1342.00	6781.00
1343.00	6897.00
1344.00	6818.00
1345.00	6972.00
1346.00	7026.00
1347.00	7116.00
1348.00	7215.00
1349.00	7417.00
1350.00	7336.00
1351.00	7592.00
1352.00	7907.00
1353.00	8082.00
1354.00	8216.00
1355.00	8389.00
1356.00	8692.00
1357.00	8840.00
1358.00	9086.00
1359.00	9309.00
1360.00	9336.00
1361.00	9400.00
1362.00	9490.00
1363.00	9656.00
1364.00	9578.00
1365.00	9546.00
1366.00	9399.00
1367.00	9306.00
1368.00	9255.00
1369.00	8931.00
1370.00	8824.00
1371.00	8539.00
1372.00	8447.00
1373.00	8219.00
1374.00	7938.00
1375.00	7785.00
1376.00	7570.00
1377.00	7225.00
1378.00	7188.00
1379.00	6980.00
1380.00	6807.00
1381.00	6666.00
1382.00	6534.00
1383.00	6592.00
1384.00	6465.00
1385.00	6442.00
1386.00	6249.00
1387.00	5996.00
1388.00	6251.00
1389.00	6166.00
1390.00	6146.00
1391.00	6085.00
1392.00	6112.00
1393.00	6076.00
1394.00	6060.00
1395.00	6100.00
1396.00	6049.00
1397.00	6003.00
1398.00	6061.00
1399.00	5968.00
1400.00	6019.00
1401.00	5958.00
1402.00	5974.00
1403.00	6037.00
1404.00	5994.00
1405.00	5823.00
1406.00	5941.00
1407.00	5940.00
1408.00	5956.00
1409.00	6005.00
1410.00	5939.00
1411.00	5952.00
1412.00	5815.00
1413.00	5947.00
1414.00	5965.00
1415.00	5871.00
1416.00	5874.00
1417.00	5958.00
1418.00	5861.00
1419.00	6053.00
1420.00	5972.00
1421.00	5833.00
1422.00	5920.00
1423.00	5945.00
1424.00	6066.00
1425.00	5869.00
1426.00	6074.00
1427.00	6074.00
1428.00	6173.00
1429.00	6228.00
1430.00	6254.00
1431.00	6169.00
1432.00	6221.00
1433.00	6259.00
1434.00	6157.00
1435.00	6405.00
1436.00	6392.00
1437.00	6347.00
1438.00	6305.00
1439.00	6338.00
1440.00	6364.00
1441.00	6379.00
1442.00	6474.00
1443.00	6515.00
1444.00	6212.00
1445.00	6377.00
1446.00	6244.00
1447.00	6257.00
1448.00	6225.00
1449.00	6150.00
1450.00	6096.00
1451.00	6033.00
1452.00	6078.00
1453.00	5929.00
1454.00	5941.00
1455.00	5866.00
1456.00	5881.00
1457.00	5898.00
1458.00	5792.00
1459.00	5782.00
1460.00	5824.00
1461.00	5705.00
1462.00	5622.00
1463.00	5588.00
1464.00	5764.00
1465.00	5602.00
1466.00	5706.00
1467.00	5653.00
1468.00	5498.00
1469.00	5669.00
1470.00	5544.00
1471.00	5611.00
1472.00	5724.00
1473.00	5671.00
1474.00	5669.00
1475.00	5697.00
1476.00	5677.00
1477.00	5635.00
1478.00	5596.00
1479.00	5682.00
1480.00	5678.00
1481.00	5604.00
1482.00	5486.00
1483.00	5640.00
1484.00	5638.00
1485.00	5578.00
1486.00	5790.00
1487.00	5397.00
1488.00	5605.00
1489.00	5491.00
1490.00	5647.00
1491.00	5460.00
1492.00	5581.00
1493.00	5550.00
1494.00	5396.00
1495.00	5558.00
1496.00	5676.00
1497.00	5596.00
1498.00	5610.00
1499.00	5583.00
1500.00	5591.00
1501.00	5843.00
1502.00	5713.00
1503.00	5866.00
1504.00	5763.00
1505.00	5931.00
1506.00	5869.00
1507.00	5968.00
1508.00	6094.00
1509.00	6028.00
1510.00	6127.00
1511.00	6225.00
1512.00	6365.00
1513.00	6377.00
1514.00	6559.00
1515.00	6551.00
1516.00	6510.00
1517.00	6569.00
1518.00	6673.00
1519.00	6668.00
1520.00	6707.00
1521.00	6661.00
1522.00	6854.00
1523.00	7003.00
1524.00	6767.00
1525.00	6782.00
1526.00	6653.00
1527.00	6674.00
1528.00	6649.00
1529.00	6570.00
1530.00	6590.00
1531.00	6451.00
1532.00	6408.00
1533.00	6417.00
1534.00	6280.00
1535.00	6155.00
1536.00	6257.00
1537.00	6215.00
1538.00	6100.00
1539.00	6116.00
1540.00	6112.00
1541.00	6379.00
1542.00	6085.00
1543.00	6094.00
1544.00	6063.00
1545.00	6248.00
1546.00	6359.00
1547.00	6264.00
1548.00	6323.00
1549.00	6491.00
1550.00	6483.00
1551.00	6547.00
1552.00	6653.00
1553.00	6614.00
1554.00	6846.00
1555.00	6785.00
1556.00	6887.00
1557.00	6831.00
1558.00	6861.00
1559.00	7091.00
1560.00	7227.00
1561.00	7265.00
1562.00	7291.00
1563.00	7478.00
1564.00	7552.00
1565.00	7586.00
1566.00	7762.00
1567.00	7770.00
1568.00	8018.00
1569.00	8078.00
1570.00	8282.00
1571.00	8400.00
1572.00	8382.00
1573.00	8640.00
1574.00	8581.00
1575.00	8935.00
1576.00	8965.00
1577.00	9092.00
1578.00	9214.00
1579.00	9152.00
1580.00	9395.00
1581.00	9507.00
1582.00	9366.00
1583.00	9497.00
1584.00	9531.00
1585.00	9620.00
1586.00	9628.00
1587.00	9498.00
1588.00	9722.00
1589.00	9850.00
1590.00	9568.00
1591.00	9716.00
1592.00	9540.00
1593.00	9560.00
1594.00	9554.00
1595.00	9422.00
1596.00	9490.00
1597.00	9188.00
1598.00	9288.00
1599.00	9261.00
1600.00	9075.00
1601.00	9060.00
1602.00	8920.00
1603.00	8834.00
1604.00	8575.00
1605.00	8562.00
1606.00	8365.00
1607.00	8435.00
1608.00	8170.00
1609.00	7971.00
1610.00	7888.00
1611.00	7764.00
1612.00	7661.00
1613.00	7290.00
1614.00	7343.00
1615.00	7198.00
1616.00	7004.00
1617.00	6907.00
1618.00	6863.00
1619.00	6727.00
1620.00	6619.00
1621.00	6415.00
1622.00	6435.00
1623.00	6318.00
1624.00	6189.00
1625.00	6074.00
1626.00	5908.00
1627.00	5803.00
1628.00	5908.00
1629.00	5711.00
1630.00	5561.00
1631.00	5560.00
1632.00	5481.00
1633.00	5508.00
1634.00	5351.00
1635.00	5166.00
1636.00	5233.00
1637.00	5097.00
1638.00	5085.00
1639.00	5003.00
1640.00	4962.00
1641.00	4874.00
1642.00	4877.00
1643.00	4786.00
1644.00	4848.00
1645.00	4757.00
1646.00	4785.00
1647.00	4697.00
1648.00	4489.00
1649.00	4646.00
1650.00	4586.00
1651.00	4569.00
1652.00	4634.00
1653.00	4621.00
1654.00	4619.00
1655.00	4646.00
1656.00	4531.00
1657.00	4573.00
1658.00	4663.00
1659.00	4669.00
1660.00	4806.00
1661.00	4868.00
1662.00	5053.00
1663.00	5174.00
1664.00	5300.00
1665.00	5505.00
1666.00	5734.00
1667.00	5870.00
1668.00	6037.00
1669.00	6156.00
1670.00	6427.00
1671.00	6868.00
1672.00	6950.00
1673.00	7223.00
1674.00	7314.00
1675.00	7655.00
1676.00	7858.00
1677.00	8038.00
1678.00	8209.00
1679.00	8549.00
1680.00	8594.00
1681.00	8541.00
1682.00	8519.00
1683.00	8411.00
1684.00	8468.00
1685.00	8344.00
1686.00	8218.00
1687.00	8094.00
1688.00	7731.00
1689.00	7424.00
1690.00	7184.00
1691.00	7148.00
1692.00	6647.00
1693.00	6443.00
1694.00	6167.00
1695.00	5936.00
1696.00	5570.00
1697.00	5350.00
1698.00	5247.00
1699.00	4980.00
1700.00	4766.00
1701.00	4557.00
1702.00	4396.00
1703.00	4215.00
1704.00	4161.00
1705.00	4129.00
1706.00	4034.00
1707.00	3834.00
1708.00	3766.00
1709.00	3709.00
1710.00	3735.00
1711.00	3737.00
1712.00	3666.00
1713.00	3547.00
1714.00	3569.00
1715.00	3596.00
1716.00	3579.00
1717.00	3618.00
1718.00	3495.00
1719.00	3484.00
1720.00	3520.00
1721.00	3482.00
1722.00	3437.00
1723.00	3396.00
1724.00	3538.00
1725.00	3516.00
1726.00	3460.00
1727.00	3589.00
1728.00	3410.00
1729.00	3524.00
1730.00	3399.00
1731.00	3488.00
1732.00	3476.00
1733.00	3537.00
1734.00	3503.00
1735.00	3431.00
1736.00	3416.00
1737.00	3551.00
1738.00	3561.00
1739.00	3497.00
1740.00	3424.00
1741.00	3487.00
1742.00	3569.00
1743.00	3537.00
1744.00	3564.00
1745.00	3496.00
1746.00	3497.00
1747.00	3523.00
1748.00	3495.00
1749.00	3589.00
1750.00	3527.00
1751.00	3593.00
1752.00	3585.00
1753.00	3554.00
1754.00	3610.00
1755.00	3666.00
1756.00	3549.00
1757.00	3630.00
1758.00	3688.00
1759.00	3637.00
1760.00	3569.00
1761.00	3662.00
1762.00	3715.00
1763.00	3582.00
1764.00	3613.00
1765.00	3610.00
1766.00	3679.00
1767.00	3678.00
1768.00	3668.00
1769.00	3614.00
1770.00	3728.00
1771.00	3616.00
1772.00	3521.00
1773.00	3631.00
1774.00	3631.00
1775.00	3521.00
1776.00	3597.00
1777.00	3510.00
1778.00	3582.00
1779.00	3596.00
1780.00	3585.00
1781.00	3449.00
1782.00	3478.00
1783.00	3502.00
1784.00	3295.00
1785.00	3432.00
1786.00	3380.00
1787.00	3339.00
1788.00	3392.00
1789.00	3351.00
1790.00	3280.00
1791.00	3157.00
1792.00	3259.00
1793.00	3188.00
1794.00	3167.00
1795.00	3126.00
1796.00	3167.00
1797.00	3148.00
1798.00	2888.00
1799.00	2978.00
1800.00	3037.00
1801.00	2916.00
1802.00	2973.00
1803.00	2879.00
1804.00	2849.00
1805.00	2764.00
1806.00	2798.00
1807.00	2766.00
1808.00	2671.00
1809.00	2748.00
1810.00	2654.00
1811.00	2676.00
1812.00	2570.00
1813.00	2613.00
1814.00	2594.00
1815.00	2526.00
1816.00	2544.00
1817.00	2583.00
1818.00	2463.00
1819.00	2501.00
1820.00	2499.00
1821.00	2335.00
1822.00	2367.00
1823.00	2359.00
1824.00	2318.00
1825.00	2339.00
1826.00	2247.00
1827.00	2247.00
1828.00	2319.00
1829.00	2213.00
1830.00	2215.00
1831.00	2204.00
1832.00	2204.00
1833.00	2196.00
1834.00	2167.00
1835.00	2125.00
1836.00	2083.00
1837.00	2098.00
1838.00	2084.00
1839.00	2068.00
1840.00	1988.00
1841.00	2057.00
1842.00	2051.00
1843.00	2009.00
1844.00	2020.00
1845.00	2011.00
1846.00	1955.00
1847.00	1919.00
1848.00	1948.00
1849.00	2000.00
1850.00	1925.00
1851.00	1987.00
1852.00	1880.00
1853.00	1854.00
1854.00	1881.00
1855.00	1798.00
1856.00	1877.00
1857.00	1817.00
1858.00	1876.00
1859.00	1906.00
1860.00	1868.00
1861.00	1782.00
1862.00	1864.00
1863.00	1858.00
1864.00	1871.00
1865.00	1824.00
1866.00	1841.00
1867.00	1809.00
1868.00	1770.00
1869.00	1777.00
1870.00	1861.00
1871.00	1861.00
1872.00	1861.00
1873.00	1899.00
1874.00	1803.00
1875.00	1885.00
1876.00	1899.00
1877.00	1901.00
1878.00	1970.00
1879.00	1977.00
1880.00	2031.00
1881.00	2010.00
1882.00	2068.00
1883.00	2131.00
1884.00	2134.00
1885.00	2160.00
1886.00	2072.00
1887.00	2184.00
1888.00	2277.00
1889.00	2257.00
1890.00	2242.00
1891.00	2237.00
1892.00	2151.00
1893.00	2182.00
1894.00	2157.00
1895.00	2152.00
1896.00	2113.00
1897.00	2053.00
1898.00	1986.00
1899.00	1802.00
1900.00	1905.00
1901.00	1811.00
1902.00	1758.00
1903.00	1710.00
1904.00	1637.00
1905.00	1699.00
1906.00	1682.00
1907.00	1640.00
1908.00	1588.00
1909.00	1615.00
1910.00	1544.00
1911.00	1497.00
1912.00	1546.00
1913.00	1508.00
1914.00	1515.00
1915.00	1523.00
1916.00	1463.00
1917.00	1515.00
1918.00	1497.00
1919.00	1404.00
1920.00	1448.00
1921.00	1448.00
1922.00	1457.00
1923.00	1407.00
1924.00	1447.00
1925.00	1427.00
1926.00	1457.00
1927.00	1414.00
1928.00	1364.00
1929.00	1392.00
1930.00	1366.00
1931.00	1286.00
1932.00	1374.00
1933.00	1303.00
1934.00	1229.00
1935.00	1268.00
1936.00	1301.00
1937.00	1258.00
1938.00	1218.00
1939.00	1308.00
1940.00	1208.00
1941.00	1175.00
1942.00	1132.00
1943.00	1238.00
1944.00	1176.00
1945.00	1182.00
1946.00	1165.00
1947.00	1146.00
1948.00	1133.00
1949.00	1168.00
1950.00	1157.00
1951.00	1138.00
1952.00	1140.00
1953.00	1092.00
1954.00	1130.00
1955.00	1100.00
1956.00	1111.00
1957.00	1075.00
1958.00	1131.00
1959.00	1147.00
1960.00	1040.00
1961.00	1097.00
1962.00	1083.00
1963.00	1103.00
1964.00	1110.00
1965.00	1084.00
1966.00	1053.00
1967.00	1069.00
1968.00	1095.00
1969.00	1080.00
1970.00	1010.00
1971.00	1051.00
1972.00	1020.00
1973.00	1066.00
1974.00	974.00
1975.00	1064.00
1976.00	972.00
1977.00	1022.00
1978.00	973.00
1979.00	1024.00
1980.00	1062.00
1981.00	1017.00
1982.00	955.00
1983.00	938.00
1984.00	956.00
1985.00	979.00
1986.00	914.00
1987.00	983.00
1988.00	975.00
1989.00	958.00
1990.00	971.00
1991.00	990.00
1992.00	891.00
1993.00	911.00
1994.00	968.00
1995.00	973.00
1996.00	871.00
1997.00	899.00
1998.00	868.00
1999.00	899.00
2000.00	892.00
2001.00	897.00
2002.00	885.00
2003.00	865.00
2004.00	925.00
2005.00	864.00
2006.00	902.00
2007.00	844.00
2008.00	857.00
2009.00	834.00
2010.00	829.00
2011.00	871.00
2012.00	846.00
2013.00	812.00
2014.00	779.00
2015.00	830.00
2016.00	860.00
2017.00	772.00
2018.00	815.00
2019.00	789.00
2020.00	798.00
2021.00	742.00
2022.00	757.00
2023.00	808.00
2024.00	757.00
2025.00	764.00
2026.00	715.00
2027.00	761.00
2028.00	761.00
2029.00	825.00
2030.00	766.00
2031.00	686.00
2032.00	735.00
2033.00	709.00
2034.00	767.00
2035.00	766.00
2036.00	730.00
2037.00	716.00
2038.00	684.00
2039.00	701.00
2040.00	709.00
2041.00	644.00
2042.00	665.00
2043.00	732.00
2044.00	664.00
2045.00	668.00
2046.00	661.00
2047.00	694.00
2048.00	 0.00
